/*--------------------------------*- C++ -*----------------------------------*\
  =========                 |
  \\      /  F ield         | OpenFOAM: The Open Source CFD Toolbox
   \\    /   O peration     | Website:  https://openfoam.org
    \\  /    A nd           | Version:  10
     \\/     M anipulation  |
\*---------------------------------------------------------------------------*/
FoamFile
{
    format      ascii;
    class       volScalarField;
    location    "8.5";
    object      ddt0(T);
}
// * * * * * * * * * * * * * * * * * * * * * * * * * * * * * * * * * * * * * //

dimensions      [0 0 -1 1 0 0 0];

internalField   nonuniform List<scalar> 
10000
(
4738.96
1994.4
2054.73
2093.81
2100.24
2101.29
2101.6
2101.72
2101.77
2101.8
2101.82
2101.83
2101.85
2101.86
2101.87
2101.88
2101.89
2101.9
2101.91
2101.92
2101.93
2101.94
2101.95
2101.96
2101.96
2101.97
2101.98
2101.98
2101.99
2101.99
2102
2102
2102
2102.01
2102.01
2102.01
2102.02
2102.02
2102.02
2102.02
2102.02
2102.02
2102.02
2102.02
2102.02
2102.02
2102.02
2102.02
2102.02
2102.02
2102.01
2102.01
2102.01
2102.01
2102.01
2102.01
2102
2102
2102
2102
2102
2101.99
2101.99
2101.99
2101.99
2101.98
2101.98
2101.98
2101.98
2101.98
2101.97
2101.97
2101.97
2101.97
2101.97
2101.96
2101.96
2101.96
2101.96
2101.96
2101.96
2101.96
2101.95
2101.95
2101.95
2101.95
2101.95
2101.95
2101.95
2101.95
2101.95
2101.95
2101.94
2101.94
2101.92
2101.79
2100.82
2094.36
2070.47
2331.69
2335.01
-755.85
-514.891
-427.346
-414.047
-412.306
-411.87
-411.672
-411.572
-411.512
-411.466
-411.425
-411.387
-411.351
-411.316
-411.282
-411.249
-411.218
-411.188
-411.159
-411.132
-411.106
-411.082
-411.059
-411.038
-411.018
-410.999
-410.982
-410.966
-410.951
-410.937
-410.925
-410.914
-410.904
-410.896
-410.888
-410.882
-410.876
-410.872
-410.868
-410.866
-410.864
-410.864
-410.864
-410.864
-410.866
-410.868
-410.871
-410.874
-410.878
-410.882
-410.887
-410.892
-410.897
-410.903
-410.909
-410.915
-410.921
-410.927
-410.934
-410.94
-410.947
-410.953
-410.96
-410.966
-410.973
-410.979
-410.986
-410.992
-410.998
-411.004
-411.01
-411.015
-411.021
-411.026
-411.031
-411.036
-411.04
-411.045
-411.049
-411.053
-411.057
-411.061
-411.065
-411.068
-411.071
-411.074
-411.077
-411.08
-411.082
-411.084
-411.087
-411.089
-411.092
-411.102
-411.201
-412.091
-418.173
-443.657
-393.27
2365.4
-558.211
-240.502
-134.701
-118.215
-115.942
-115.368
-115.107
-114.966
-114.875
-114.802
-114.736
-114.673
-114.613
-114.554
-114.497
-114.442
-114.39
-114.34
-114.292
-114.246
-114.203
-114.163
-114.124
-114.088
-114.055
-114.023
-113.994
-113.967
-113.942
-113.92
-113.899
-113.88
-113.864
-113.849
-113.837
-113.826
-113.817
-113.809
-113.803
-113.799
-113.796
-113.795
-113.795
-113.796
-113.799
-113.802
-113.807
-113.812
-113.818
-113.825
-113.833
-113.841
-113.85
-113.86
-113.869
-113.879
-113.89
-113.9
-113.911
-113.922
-113.933
-113.944
-113.955
-113.966
-113.976
-113.987
-113.998
-114.008
-114.018
-114.028
-114.037
-114.047
-114.056
-114.064
-114.073
-114.081
-114.089
-114.096
-114.104
-114.11
-114.117
-114.123
-114.129
-114.135
-114.14
-114.145
-114.15
-114.154
-114.158
-114.162
-114.165
-114.169
-114.173
-114.17
-114.159
-114.362
-116.932
-130.47
-113.799
2395.67
-483.875
-148.626
-38.5262
-21.1818
-18.7075
-18.0547
-17.7461
-17.5713
-17.4515
-17.3522
-17.2609
-17.1735
-17.0891
-17.0074
-16.9284
-16.8524
-16.7793
-16.7095
-16.6428
-16.5794
-16.5193
-16.4624
-16.4088
-16.3585
-16.3113
-16.2673
-16.2265
-16.1887
-16.154
-16.1222
-16.0934
-16.0674
-16.0443
-16.0239
-16.0061
-15.9909
-15.9781
-15.9678
-15.9597
-15.9539
-15.9501
-15.9483
-15.9483
-15.9501
-15.9535
-15.9584
-15.9647
-15.9724
-15.9812
-15.991
-16.0018
-16.0135
-16.026
-16.0391
-16.0527
-16.0668
-16.0814
-16.0962
-16.1113
-16.1265
-16.1418
-16.1571
-16.1724
-16.1876
-16.2027
-16.2175
-16.2322
-16.2466
-16.2607
-16.2744
-16.2879
-16.3009
-16.3136
-16.3258
-16.3376
-16.349
-16.36
-16.3705
-16.3806
-16.3902
-16.3993
-16.408
-16.4163
-16.4241
-16.4315
-16.4384
-16.4449
-16.4509
-16.4566
-16.462
-16.4674
-16.4739
-16.483
-16.4922
-16.4738
-16.3716
-16.5833
-19.7994
-13.1855
2400.76
-472.544
-134.309
-23.3779
-5.81206
-3.2508
-2.54677
-2.20122
-1.99621
-1.84926
-1.72428
-1.60811
-1.49661
-1.38869
-1.28415
-1.18311
-1.08573
-0.992193
-0.902631
-0.817145
-0.735798
-0.658621
-0.585623
-0.516793
-0.452109
-0.391536
-0.335033
-0.282552
-0.23404
-0.189437
-0.148677
-0.111688
-0.0783904
-0.0486986
-0.0225189
0.000249509
0.019715
0.0359926
0.0492042
0.0594773
0.0669447
0.0717439
0.0740155
0.0739033
0.0715529
0.0671108
0.0607239
0.0525387
0.0427002
0.0313516
0.0186337
0.00468401
-0.0103634
-0.0263786
-0.0432362
-0.0608154
-0.0790007
-0.0976818
-0.116754
-0.136119
-0.155682
-0.175357
-0.195062
-0.214721
-0.234265
-0.253629
-0.272755
-0.29159
-0.310087
-0.328202
-0.345898
-0.363142
-0.379905
-0.396164
-0.411897
-0.427089
-0.441726
-0.455797
-0.469296
-0.482218
-0.49456
-0.50632
-0.517501
-0.528104
-0.538133
-0.547592
-0.556486
-0.564823
-0.572614
-0.579888
-0.586736
-0.593501
-0.60132
-0.613227
-0.633868
-0.657231
-0.627417
-0.474593
-0.463966
2.16604
2401.6
-471.058
-132.333
-21.2125
-3.5616
-0.948015
-0.205498
0.171513
0.404467
0.577622
0.727832
0.868539
1.00394
1.13514
1.26228
1.38522
1.50373
1.61761
1.72669
1.83084
1.92997
2.02405
2.11305
2.19698
2.27587
2.34973
2.41863
2.48262
2.54176
2.59612
2.64578
2.69083
2.73137
2.76751
2.79935
2.82703
2.85068
2.87043
2.88645
2.89888
2.90788
2.91363
2.91631
2.91607
2.91311
2.9076
2.89972
2.88964
2.87756
2.86363
2.84804
2.83095
2.81253
2.79292
2.77229
2.75079
2.72854
2.7057
2.68238
2.65871
2.6348
2.61075
2.58667
2.56265
2.53877
2.51511
2.49175
2.46874
2.44615
2.42403
2.40242
2.38136
2.36089
2.34104
2.32183
2.30329
2.28542
2.26824
2.25177
2.23599
2.22093
2.20658
2.19294
2.18
2.16776
2.15622
2.14536
2.13519
2.12569
2.11684
2.10859
2.10075
2.09256
2.08155
2.0618
2.02647
1.99035
2.03323
2.36219
3.42679
2401.86
-470.68
-131.83
-20.6335
-2.9325
-0.280687
0.493707
0.899133
1.15866
1.35736
1.5324
1.69733
1.85637
2.01057
2.16006
2.30463
2.44402
2.57799
2.70634
2.82891
2.94561
3.05638
3.16118
3.26001
3.3529
3.43989
3.52101
3.59634
3.66595
3.72992
3.78834
3.84133
3.88899
3.93145
3.96885
4.00134
4.02907
4.05221
4.07094
4.08544
4.09592
4.10256
4.10557
4.10515
4.10153
4.0949
4.08549
4.07349
4.05913
4.0426
4.02411
4.00386
3.98203
3.95882
3.93441
3.90897
3.88267
3.85565
3.82809
3.80011
3.77185
3.74344
3.71499
3.68661
3.6584
3.63046
3.60287
3.5757
3.54903
3.52291
3.49739
3.47253
3.44837
3.42494
3.40227
3.38038
3.3593
3.33903
3.31959
3.30098
3.28322
3.26629
3.25019
3.23493
3.22049
3.20688
3.19408
3.18208
3.17088
3.16046
3.1508
3.14184
3.13326
3.12381
3.10959
3.0825
3.03711
3.00264
3.15266
3.66487
2401.97
-470.505
-131.595
-20.3529
-2.61558
0.0675339
0.870317
1.30245
1.5877
1.81141
2.01089
2.19972
2.38207
2.55897
2.73049
2.89638
3.05635
3.21012
3.35746
3.49819
3.63218
3.75938
3.87973
3.99324
4.09992
4.19981
4.29296
4.37944
4.45934
4.53274
4.59977
4.66053
4.71516
4.76381
4.80664
4.84381
4.87551
4.90193
4.92328
4.93977
4.95162
4.95907
4.96235
4.96169
4.95734
4.94955
4.93855
4.92459
4.90791
4.88874
4.86733
4.84389
4.81865
4.79182
4.76361
4.73422
4.70385
4.67266
4.64085
4.60856
4.57596
4.54318
4.51037
4.47764
4.44512
4.4129
4.38109
4.34977
4.31903
4.28892
4.25952
4.23088
4.20304
4.17604
4.14992
4.12471
4.10042
4.07708
4.05469
4.03327
4.01281
3.99332
3.97479
3.95722
3.9406
3.92493
3.9102
3.8964
3.88351
3.87152
3.86042
3.8502
3.84078
3.83176
3.8213
3.80387
3.76869
3.7104
3.7179
4.09004
2402.02
-470.412
-131.464
-20.1884
-2.42108
0.289923
1.11929
1.57715
1.88748
2.13576
2.35931
2.57166
2.77696
2.9762
3.1694
3.35627
3.53648
3.70972
3.87572
4.03429
4.18529
4.32863
4.46426
4.59218
4.71239
4.82494
4.92989
5.0273
5.11728
5.19993
5.27537
5.34373
5.40517
5.45985
5.50795
5.54966
5.5852
5.61478
5.63863
5.65701
5.67015
5.67831
5.68177
5.6808
5.67566
5.66664
5.654
5.63803
5.61899
5.59715
5.57277
5.54612
5.51744
5.48697
5.45495
5.42161
5.38715
5.35179
5.31572
5.27913
5.24218
5.20505
5.16788
5.13081
5.09398
5.0575
5.02149
4.98604
4.95123
4.91716
4.88388
4.85147
4.81997
4.78943
4.75988
4.73136
4.70389
4.67749
4.65217
4.62795
4.60482
4.58278
4.56184
4.54198
4.5232
4.50549
4.48884
4.47325
4.45869
4.44515
4.43262
4.42109
4.41056
4.40099
4.39178
4.37995
4.3549
4.29181
4.21161
4.60376
2402.04
-470.355
-131.376
-20.0718
-2.27727
0.459976
1.31492
1.79784
2.13277
2.40518
2.65237
2.88784
3.11569
3.33688
3.55136
3.75883
3.9589
4.15123
4.33554
4.51161
4.67927
4.83844
4.98904
5.13107
5.26454
5.38949
5.50597
5.61408
5.71391
5.80558
5.88922
5.96498
6.03304
6.09357
6.14678
6.19289
6.23212
6.26472
6.29095
6.31108
6.3254
6.33419
6.33774
6.33637
6.33036
6.32004
6.30571
6.28767
6.26622
6.24166
6.21429
6.1844
6.15225
6.11812
6.08227
6.04496
6.00642
5.96688
5.92655
5.88565
5.84437
5.80288
5.76136
5.71997
5.67884
5.63811
5.5979
5.55833
5.51949
5.48146
5.44433
5.40817
5.37302
5.33896
5.306
5.27419
5.24356
5.21413
5.1859
5.15889
5.13311
5.10855
5.08521
5.06309
5.04217
5.02244
5.0039
4.98653
4.97031
4.95524
4.94129
4.92846
4.91676
4.90624
4.8969
4.88744
4.86897
4.80559
4.66158
5.12813
2402.06
-470.309
-131.304
-19.973
-2.15272
0.609842
1.4897
1.99714
2.35618
2.65225
2.92264
3.18079
3.43075
3.67344
3.90878
4.13642
4.35593
4.56696
4.76919
4.96237
5.14634
5.32098
5.48622
5.64204
5.78845
5.9255
6.05324
6.17177
6.28119
6.38163
6.47324
6.55619
6.63066
6.69685
6.75499
6.80531
6.84808
6.88355
6.91202
6.93379
6.94917
6.95846
6.96201
6.96014
6.9532
6.9415
6.9254
6.90523
6.88132
6.85401
6.8236
6.79043
6.75479
6.71698
6.67729
6.63599
6.59335
6.54962
6.50504
6.45983
6.41422
6.36838
6.32252
6.27681
6.2314
6.18643
6.14205
6.09838
6.05551
6.01356
5.97259
5.9327
5.89393
5.85636
5.82002
5.78495
5.75117
5.71873
5.68761
5.65785
5.62944
5.60238
5.57667
5.5523
5.52926
5.50754
5.48712
5.468
5.45015
5.43356
5.41822
5.40411
5.39124
5.37967
5.36965
5.3609
5.34642
5.28393
5.08775
5.63897
2402.07
-470.269
-131.237
-19.8813
-2.036
0.751228
1.65544
2.18687
2.56952
2.88878
3.18187
3.46221
3.73381
3.99753
4.25325
4.50059
4.73911
4.96839
5.18811
5.398
5.59787
5.7876
5.96711
6.13637
6.29539
6.44421
6.58291
6.71156
6.8303
6.93925
7.03859
7.12848
7.20914
7.28078
7.34364
7.398
7.44412
7.4823
7.51286
7.53613
7.55243
7.56212
7.56555
7.5631
7.55511
7.54196
7.52403
7.50167
7.47524
7.44512
7.41164
7.37515
7.33598
7.29447
7.25091
7.20562
7.15887
7.11095
7.06211
7.0126
6.96265
6.91248
6.86229
6.81227
6.76259
6.71341
6.66487
6.61711
6.57024
6.52438
6.4796
6.436
6.39364
6.35258
6.31288
6.27457
6.23768
6.20224
6.16827
6.13578
6.10476
6.07523
6.04717
6.02058
5.99544
5.97175
5.94948
5.92863
5.90918
5.8911
5.87438
5.85901
5.84499
5.83237
5.82149
5.81271
5.80063
5.73957
5.50119
6.12935
2402.08
-470.23
-131.174
-19.7932
-1.92354
0.887778
1.81578
2.37068
2.7764
3.11831
3.43358
3.73559
4.0283
4.31253
4.58814
4.85469
5.11171
5.35878
5.59553
5.82168
6.03704
6.24144
6.43483
6.61715
6.78842
6.94868
7.09799
7.23646
7.36421
7.48139
7.58818
7.68477
7.77137
7.84823
7.91561
7.97379
8.02309
8.06381
8.09629
8.1209
8.13799
8.14795
8.15115
8.148
8.13888
8.1242
8.10435
8.07973
8.05073
8.01774
7.98114
7.9413
7.89858
7.85333
7.80589
7.75658
7.70572
7.6536
7.6005
7.54669
7.49242
7.43792
7.38341
7.3291
7.27516
7.22178
7.16911
7.11728
7.06644
7.01668
6.96812
6.92084
6.8749
6.83039
6.78735
6.74583
6.70585
6.66745
6.63065
6.59545
6.56186
6.52987
6.4995
6.47071
6.44351
6.41787
6.39378
6.37123
6.35019
6.33064
6.31258
6.29597
6.28081
6.26717
6.25539
6.2462
6.23553
6.17614
5.90599
6.59672
2402.1
-470.193
-131.112
-19.7077
-1.81438
1.02044
1.97166
2.54943
2.97765
3.34164
3.67852
4.00163
4.3149
4.61909
4.91404
5.19927
5.47429
5.73864
5.99194
6.23389
6.46427
6.68293
6.88977
7.08475
7.26788
7.4392
7.59878
7.74673
7.88318
8.00829
8.12224
8.22524
8.31753
8.39937
8.47104
8.53284
8.5851
8.62817
8.66242
8.68821
8.70594
8.71603
8.71888
8.71492
8.70456
8.68825
8.66641
8.63946
8.60782
8.57191
8.53214
8.48891
8.4426
8.3936
8.34225
8.28892
8.23393
8.17761
8.12025
8.06214
8.00355
7.94473
7.88592
7.82733
7.76916
7.71159
7.6548
7.59894
7.54414
7.49053
7.4382
7.38726
7.33779
7.28985
7.2435
7.19879
7.15576
7.11442
7.07481
7.03694
7.0008
6.9664
6.93372
6.90278
6.87353
6.84598
6.8201
6.79587
6.77327
6.75229
6.7329
6.71508
6.69882
6.68417
6.67149
6.66171
6.65177
6.59405
6.30252
7.03972
2402.11
-470.157
-131.053
-19.6248
-1.70839
1.14931
2.12312
2.72315
3.17326
3.55872
3.9166
4.26022
4.59344
4.91702
5.23073
5.53409
5.82657
6.10767
6.37701
6.63426
6.87919
7.11163
7.33148
7.5387
7.73328
7.91527
8.08475
8.24183
8.38663
8.51934
8.64015
8.74929
8.847
8.93356
9.00927
9.07447
9.12949
9.17472
9.21053
9.23734
9.25556
9.26564
9.26801
9.26312
9.25143
9.23339
9.20946
9.18011
9.14576
9.10688
9.0639
9.01723
8.9673
8.91451
8.85924
8.80187
8.74274
8.68221
8.62059
8.55819
8.49529
8.43216
8.36906
8.3062
8.24382
8.1821
8.12122
8.06134
8.00261
7.94516
7.8891
7.83453
7.78155
7.73021
7.68058
7.63272
7.58666
7.54242
7.50004
7.45952
7.42086
7.38407
7.34914
7.31605
7.2848
7.25536
7.22772
7.20185
7.17772
7.15533
7.13464
7.11563
7.0983
7.08267
7.06911
7.05865
7.04893
6.99283
6.68949
7.45757
2402.12
-470.123
-130.995
-19.5445
-1.60566
1.27424
2.26998
2.89162
3.36296
3.76923
4.14748
4.51096
4.86352
5.20587
5.53775
5.85865
6.16801
6.46532
6.75015
7.02218
7.28116
7.5269
7.7593
7.97831
8.18392
8.37618
8.55516
8.72099
8.8738
9.01378
9.14113
9.25609
9.35893
9.44995
9.52946
9.59781
9.65537
9.70255
9.73974
9.76739
9.78595
9.79586
9.79761
9.79167
9.77853
9.75867
9.73258
9.70073
9.66362
9.62171
9.57545
9.52531
9.47173
9.41512
9.35591
9.29448
9.23121
9.16646
9.10059
9.03389
8.96669
8.89927
8.83189
8.76479
8.69821
8.63235
8.5674
8.50354
8.44091
8.37965
8.31989
8.26173
8.20526
8.15056
8.09769
8.0467
7.99764
7.95054
7.90541
7.86228
7.82114
7.78199
7.74483
7.70964
7.67641
7.64512
7.61574
7.58825
7.56264
7.53886
7.51691
7.49675
7.47837
7.4618
7.44738
7.43618
7.42634
7.37183
7.06502
7.84979
2402.13
-470.089
-130.939
-19.467
-1.50636
1.39504
2.41201
3.05455
3.54642
3.97283
4.37077
4.75346
5.1247
5.48518
5.8346
6.17243
6.49807
6.81101
7.11078
7.39706
7.66955
7.92809
8.17256
8.40289
8.61909
8.82119
9.00927
9.18346
9.3439
9.49079
9.62435
9.74483
9.85251
9.9477
10.0307
10.102
10.1619
10.2108
10.2492
10.2775
10.2962
10.3058
10.3068
10.2997
10.285
10.2632
10.2348
10.2004
10.1605
10.1155
10.0659
10.0122
9.95495
9.8945
9.83132
9.76582
9.6984
9.62944
9.5593
9.48833
9.41684
9.34513
9.27349
9.20217
9.13142
9.06145
8.99246
8.92463
8.85813
8.7931
8.72967
8.66795
8.60803
8.54999
8.49391
8.43984
8.38782
8.33788
8.29004
8.24433
8.20074
8.15926
8.11991
8.08265
8.04747
8.01436
7.98328
7.95422
7.92714
7.90202
7.87883
7.85755
7.83816
7.82068
7.80543
7.79348
7.78328
7.73037
7.42702
8.21613
2402.14
-470.057
-130.886
-19.3922
-1.41067
1.5115
2.54895
3.21167
3.72336
4.16919
4.58612
4.98731
5.37656
5.75451
6.12083
6.47495
6.81627
7.14423
7.45837
7.75832
8.0438
8.31462
8.57065
8.81182
9.03814
9.24964
9.4464
9.62854
9.79624
9.94968
10.0891
10.2148
10.327
10.4261
10.5124
10.5863
10.6482
10.6987
10.738
10.7668
10.7855
10.7946
10.7947
10.7863
10.7699
10.7461
10.7154
10.6783
10.6355
10.5873
10.5344
10.4771
10.4161
10.3518
10.2846
10.2151
10.1435
10.0703
9.99591
9.92066
9.84489
9.76892
9.69304
9.61752
9.54262
9.46856
9.39556
9.32381
9.25347
9.18469
9.11763
9.05237
8.98904
8.92771
8.86845
8.81133
8.75638
8.70364
8.65314
8.60488
8.55887
8.51511
8.47359
8.43429
8.3972
8.3623
8.32956
8.29894
8.27044
8.244
8.21962
8.19725
8.17688
8.15853
8.14248
8.12977
8.11906
8.06783
7.77348
8.55653
2402.15
-470.026
-130.834
-19.3205
-1.3187
1.62345
2.68063
3.36276
3.89353
4.35804
4.79322
5.21222
5.61877
6.01349
6.39604
6.76581
7.12216
7.46453
7.79244
8.10549
8.4034
8.68596
8.95304
9.20456
9.44052
9.66096
9.86596
10.0557
10.2302
10.3898
10.5348
10.6653
10.7817
10.8844
10.9736
11.05
11.1138
11.1655
11.2056
11.2347
11.2532
11.2617
11.2607
11.2508
11.2327
11.2067
11.1735
11.1338
11.0879
11.0365
10.9802
10.9193
10.8546
10.7864
10.7152
10.6415
10.5657
10.4883
10.4097
10.3302
10.2502
10.1699
10.0898
10.0101
9.93111
9.853
9.77602
9.70036
9.62622
9.55374
9.48307
9.41433
9.34762
9.28303
9.22064
9.1605
9.10266
9.04716
8.99402
8.94325
8.89486
8.84885
8.8052
8.7639
8.72494
8.68828
8.6539
8.62178
8.59187
8.56416
8.53861
8.51518
8.49387
8.47467
8.45786
8.44441
8.43309
8.38363
8.10255
8.87106
2402.16
-469.997
-130.785
-19.2517
-1.23056
1.73077
2.80689
3.50765
4.05672
4.53915
4.99185
5.42791
5.85105
6.26185
6.65994
7.04468
7.41543
7.77158
8.11264
8.4382
8.74797
9.04172
9.31931
9.58068
9.82579
10.0547
10.2675
10.4643
10.6453
10.8107
10.9608
11.0958
11.2161
11.3221
11.4141
11.4925
11.5579
11.6107
11.6514
11.6805
11.6986
11.7063
11.7042
11.6927
11.6726
11.6444
11.6087
11.5661
11.5172
11.4625
11.4027
11.3382
11.2697
11.1975
11.1223
11.0445
10.9646
10.883
10.8001
10.7163
10.6321
10.5476
10.4633
10.3795
10.2963
10.2142
10.1333
10.0538
9.97584
9.89969
9.82545
9.75326
9.68321
9.6154
9.54991
9.4868
9.42611
9.36789
9.31215
9.25891
9.20818
9.15995
9.11421
9.07095
9.03014
8.99177
8.95579
8.92218
8.89091
8.86195
8.83526
8.81082
8.78859
8.76859
8.75105
8.73687
8.72488
8.67729
8.41256
9.15988
2402.17
-469.969
-130.738
-19.186
-1.14632
1.83339
2.92763
3.64623
4.2128
4.71239
5.18183
5.63421
6.07321
6.49937
6.91229
7.31133
7.6958
8.06509
8.41868
8.75615
9.07719
9.38157
9.66913
9.93981
10.1936
10.4305
10.6506
10.8541
11.0412
11.212
11.3668
11.506
11.6299
11.7388
11.8332
11.9135
11.9802
12.0338
12.0748
12.1039
12.1214
12.1282
12.1247
12.1115
12.0894
12.0588
12.0205
11.975
11.9229
11.8649
11.8015
11.7334
11.661
11.5849
11.5057
11.4237
11.3396
11.2538
11.1667
11.0787
10.9901
10.9015
10.813
10.725
10.6379
10.5517
10.4669
10.3835
10.3019
10.2221
10.1443
10.0687
9.99539
9.92441
9.85586
9.78981
9.72632
9.66541
9.60711
9.55145
9.49841
9.448
9.40021
9.35502
9.31241
9.27235
9.23481
9.19975
9.16716
9.13698
9.10919
9.08376
9.06065
9.03987
9.02162
9.00673
8.99405
8.94841
8.70207
9.42323
2402.18
-469.942
-130.693
-19.1234
-1.066
1.93125
3.04278
3.7784
4.36169
4.87763
5.36305
5.83098
6.28509
6.72588
7.15293
7.56557
7.96309
8.34486
8.71034
9.05911
9.39083
9.70526
10.0023
10.2817
10.5437
10.7881
11.0151
11.2248
11.4175
11.5933
11.7526
11.8956
12.0226
12.1342
12.2307
12.3126
12.3804
12.4346
12.4757
12.5044
12.5213
12.5269
12.5219
12.5069
12.4825
12.4495
12.4084
12.3599
12.3047
12.2433
12.1763
12.1044
12.0282
11.9481
11.8648
11.7788
11.6905
11.6005
11.5091
11.4169
11.3241
11.2313
11.1386
11.0466
10.9554
10.8653
10.7765
10.6894
10.6041
10.5207
10.4395
10.3605
10.2839
10.2097
10.1382
10.0692
10.003
9.93943
9.87863
9.82057
9.76527
9.71272
9.66292
9.61584
9.57146
9.52974
9.49067
9.45421
9.42031
9.38895
9.3601
9.3337
9.30974
9.28822
9.26931
9.25373
9.24035
9.19667
8.96988
9.6614
2402.19
-469.916
-130.65
-19.0639
-0.989622
2.02431
3.15231
3.90413
4.50331
5.03481
5.53542
6.01814
6.4866
6.94129
7.38175
7.80728
8.21717
8.61076
8.9875
9.34694
9.68874
10.0127
10.3185
10.6062
10.8758
11.1273
11.3607
11.5762
11.7741
11.9545
12.1178
12.2642
12.3941
12.5081
12.6064
12.6896
12.7582
12.8127
12.8538
12.8819
12.8979
12.9022
12.8955
12.8785
12.8519
12.8163
12.7724
12.7208
12.6623
12.5974
12.5268
12.4512
12.371
12.287
12.1996
12.1094
12.017
11.9227
11.8271
11.7307
11.6337
11.5367
11.44
11.3439
11.2486
11.1546
11.0621
10.9712
10.8822
10.7953
10.7106
10.6283
10.5485
10.4712
10.3967
10.3249
10.2559
10.1898
10.1265
10.0661
10.0086
9.95393
9.90215
9.85322
9.8071
9.76378
9.72321
9.68537
9.65021
9.6177
9.58781
9.56049
9.53571
9.51347
9.49392
9.47768
9.46361
9.42189
9.21505
9.87474
2402.2
-469.892
-130.61
-19.0074
-0.917185
2.11259
3.25622
4.02341
4.63766
5.18391
5.69892
6.19565
6.6777
7.14554
7.59868
8.03641
8.45798
8.86272
9.25006
9.61955
9.97082
10.3036
10.6178
10.9132
11.1899
11.4479
11.6873
11.9082
12.1108
12.2954
12.4623
12.6118
12.7443
12.8602
12.9601
13.0443
13.1134
13.1681
13.2088
13.2363
13.2511
13.2539
13.2454
13.2263
13.1973
13.159
13.1122
13.0575
12.9956
12.9272
12.853
12.7735
12.6894
12.6014
12.5099
12.4156
12.3189
12.2205
12.1207
12.02
11.9189
11.8178
11.7169
11.6168
11.5176
11.4197
11.3233
11.2287
11.1361
11.0457
10.9576
10.872
10.7891
10.7088
10.6313
10.5567
10.4851
10.4164
10.3507
10.288
10.2282
10.1715
10.1178
10.0671
10.0193
9.97438
9.93235
9.89317
9.85678
9.82316
9.79226
9.76404
9.73847
9.71554
9.69539
9.67852
9.66378
9.62397
9.43685
10.0636
2402.21
-469.87
-130.572
-18.9541
-0.848671
2.1961
3.3545
4.13622
4.76474
5.32493
5.85354
6.3635
6.85838
7.33862
7.80372
8.25293
8.68549
9.10071
9.49801
9.87691
10.237
10.5782
10.9001
11.2027
11.486
11.75
11.9948
12.2206
12.4276
12.616
12.7861
12.9383
13.073
13.1907
13.2917
13.3767
13.4461
13.5007
13.5409
13.5674
13.5809
13.5821
13.5717
13.5503
13.5187
13.4777
13.4278
13.3699
13.3046
13.2326
13.1546
13.0713
12.9833
12.8912
12.7957
12.6972
12.5964
12.4937
12.3898
12.2849
12.1797
12.0744
11.9695
11.8654
11.7622
11.6605
11.5604
11.4621
11.3659
11.2721
11.1806
11.0918
11.0057
10.9224
10.8421
10.7647
10.6904
10.6192
10.5511
10.4862
10.4243
10.3656
10.31
10.2575
10.208
10.1616
10.1181
10.0776
10.04
10.0053
9.97346
9.94438
9.91805
9.89446
9.87373
9.85627
9.8409
9.8029
9.63482
10.2285
2402.21
-469.848
-130.536
-18.9037
-0.784056
2.27485
3.44719
4.24261
4.88456
5.45789
5.9993
6.52171
7.02866
7.52056
7.99688
8.45686
8.89972
9.32475
9.73135
10.119
10.4874
10.8363
11.1654
11.4746
11.764
12.0335
12.2833
12.5136
12.7244
12.9162
13.0892
13.2438
13.3804
13.4994
13.6014
13.6868
13.7563
13.8105
13.8499
13.8753
13.8874
13.8867
13.8742
13.8504
13.8162
13.7723
13.7193
13.6581
13.5893
13.5137
13.432
13.3448
13.2528
13.1566
13.057
12.9543
12.8494
12.7425
12.6344
12.5254
12.416
12.3067
12.1978
12.0896
11.9827
11.8771
11.7732
11.6714
11.5717
11.4744
11.3796
11.2876
11.1985
11.1122
11.0291
10.949
10.8721
10.7984
10.728
10.6608
10.5969
10.5362
10.4787
10.4245
10.3734
10.3255
10.2806
10.2389
10.2001
10.1644
10.1315
10.1016
10.0746
10.0503
10.0291
10.011
9.99507
9.9588
9.80869
10.3697
2402.22
-469.828
-130.502
-18.8564
-0.723307
2.34889
3.53432
4.34262
4.99718
5.58284
6.13626
6.67035
7.18859
7.6914
8.17822
8.64826
9.10072
9.53489
9.95014
10.346
10.722
11.078
11.4137
11.729
12.024
12.2986
12.5529
12.7871
13.0015
13.1962
13.3717
13.5283
13.6664
13.7865
13.8891
13.9747
14.044
14.0976
14.136
14.1601
14.1705
14.1679
14.1531
14.1269
14.0899
14.0429
13.9868
13.9222
13.8499
13.7706
13.685
13.5939
13.4979
13.3977
13.294
13.1872
13.078
12.9671
12.8548
12.7416
12.6282
12.5148
12.4019
12.2898
12.179
12.0697
11.9622
11.8567
11.7535
11.6529
11.5549
11.4597
11.3675
11.2784
11.1924
11.1097
11.0303
10.9542
10.8815
10.8121
10.7461
10.6835
10.6242
10.5683
10.5156
10.4662
10.42
10.377
10.3372
10.3004
10.2667
10.2359
10.2082
10.1834
10.1616
10.143
10.1265
10.0918
9.95842
10.4877
2402.23
-469.809
-130.47
-18.8121
-0.666383
2.41825
3.61595
4.43629
5.10265
5.69984
6.26449
6.80947
7.33826
7.85123
8.34782
8.82722
9.2886
9.73124
10.1545
10.5579
10.941
11.3035
11.6453
11.9661
12.2661
12.5453
12.8036
13.0414
13.2588
13.4562
13.6338
13.792
13.9313
14.0521
14.1551
14.2406
14.3094
14.3622
14.3995
14.422
14.4306
14.4259
14.4087
14.3798
14.3399
14.2899
14.2304
14.1624
14.0865
14.0034
13.9141
13.819
13.719
13.6148
13.5069
13.396
13.2827
13.1675
13.0511
12.9339
12.8163
12.6989
12.5821
12.4662
12.3515
12.2385
12.1273
12.0183
11.9118
11.8078
11.7066
11.6083
11.5132
11.4212
11.3325
11.2472
11.1652
11.0868
11.0118
10.9403
10.8723
10.8078
10.7468
10.6892
10.635
10.5842
10.5367
10.4925
10.4515
10.4137
10.3791
10.3476
10.3192
10.2938
10.2715
10.2525
10.2355
10.2023
10.0841
10.583
2402.23
-469.791
-130.441
-18.7707
-0.61324
2.483
3.69213
4.5237
5.20106
5.80897
6.38407
6.93917
7.47776
8.00017
8.50581
8.99386
9.46348
9.91393
10.3446
10.7548
11.1444
11.5129
11.8601
12.1861
12.4906
12.7738
13.0357
13.2766
13.4967
13.6962
13.8755
14.035
14.1752
14.2965
14.3995
14.4847
14.5528
14.6045
14.6404
14.6613
14.6678
14.6608
14.6411
14.6094
14.5666
14.5134
14.4506
14.379
14.2994
14.2126
14.1194
14.0203
13.9163
13.808
13.696
13.5809
13.4635
13.3442
13.2237
13.1024
12.9808
12.8595
12.7387
12.6189
12.5005
12.3838
12.2691
12.1567
12.0467
11.9394
11.8351
11.7338
11.6357
11.5409
11.4496
11.3617
11.2773
11.1965
11.1193
11.0458
10.9758
10.9095
10.8467
10.7875
10.7318
10.6796
10.6308
10.5855
10.5434
10.5047
10.4693
10.437
10.4079
10.382
10.3592
10.3398
10.3223
10.2905
10.1861
10.656
2402.24
-469.775
-130.413
-18.7322
-0.563826
2.5432
3.76294
4.60493
5.29248
5.91034
6.49511
7.05958
7.60722
8.13833
8.65232
9.14833
9.62552
10.0831
10.5205
10.9371
11.3325
11.7064
12.0586
12.389
12.6976
12.9843
13.2494
13.493
13.7153
13.9166
14.0973
14.2577
14.3984
14.5199
14.6226
14.7073
14.7744
14.8248
14.8591
14.8781
14.8825
14.8731
14.8507
14.8161
14.7702
14.7137
14.6475
14.5723
14.489
14.3984
14.3013
14.1983
14.0902
13.9778
13.8617
13.7425
13.621
13.4976
13.373
13.2476
13.1221
12.9968
12.8721
12.7486
12.6265
12.5061
12.3879
12.272
12.1587
12.0483
11.9408
11.8365
11.7356
11.638
11.544
11.4536
11.3669
11.2838
11.2045
11.1289
11.057
10.9889
10.9244
10.8636
10.8065
10.7529
10.7029
10.6564
10.6134
10.5738
10.5375
10.5045
10.4748
10.4484
10.4252
10.4053
10.3874
10.3568
10.2647
10.7074
2402.24
-469.76
-130.388
-18.6965
-0.518085
2.59891
3.82846
4.68007
5.37703
6.00406
6.59773
7.17083
7.72678
8.26588
8.78751
9.29081
9.7749
10.239
10.6825
11.1048
11.5054
11.8842
12.2408
12.5752
12.8873
13.1772
13.4449
13.6908
13.9149
14.1176
14.2993
14.4604
14.6013
14.7226
14.8248
14.9086
14.9746
15.0235
15.0561
15.073
15.075
15.0631
15.0379
15.0003
14.9512
14.8913
14.8216
14.7428
14.6558
14.5613
14.4602
14.3532
14.2411
14.1246
14.0044
13.8811
13.7555
13.628
13.4994
13.37
13.2405
13.1113
12.9828
12.8555
12.7298
12.6059
12.4841
12.3649
12.2483
12.1347
12.0242
11.917
11.8132
11.713
11.6164
11.5235
11.4345
11.3492
11.2677
11.1902
11.1164
11.0465
10.9804
10.9181
10.8596
10.8047
10.7535
10.7059
10.6619
10.6213
10.5843
10.5506
10.5203
10.4934
10.4698
10.4495
10.4313
10.4018
10.3205
10.7377
2402.25
-469.746
-130.364
-18.6637
-0.475953
2.65021
3.88878
4.74922
5.45482
6.09026
6.69209
7.27308
7.83662
8.38301
8.9116
9.4215
9.91184
10.3818
10.8308
11.2582
11.6635
12.0466
12.4071
12.745
13.0601
13.3527
13.6227
13.8703
14.0959
14.2996
14.482
14.6433
14.7842
14.905
15.0065
15.0892
15.1538
15.201
15.2316
15.2462
15.2458
15.2312
15.2031
15.1624
15.11
15.0467
14.9734
14.8909
14.8001
14.7018
14.5967
14.4857
14.3695
14.249
14.1246
13.9973
13.8676
13.7361
13.6034
13.4701
13.3366
13.2036
13.0713
12.9403
12.8109
12.6835
12.5584
12.4358
12.316
12.1993
12.0858
11.9757
11.8692
11.7663
11.6672
11.5719
11.4806
11.3931
11.3096
11.2301
11.1545
11.0829
11.0152
10.9514
10.8915
10.8354
10.783
10.7344
10.6894
10.648
10.6102
10.5758
10.545
10.5176
10.4936
10.473
10.4544
10.4261
10.3542
10.7475
2402.25
-469.733
-130.343
-18.6336
-0.437361
2.69718
3.94399
4.81251
5.52598
6.16909
6.77835
7.3665
7.93693
8.48992
9.02478
9.54064
10.0366
10.5118
10.9657
11.3976
11.8071
12.1939
12.5578
12.8987
13.2164
13.5111
13.7829
14.032
14.2586
14.4631
14.6457
14.8071
14.9475
15.0677
15.1681
15.2495
15.3125
15.3578
15.3862
15.3985
15.3954
15.3779
15.3468
15.3029
15.2472
15.1804
15.1034
15.0172
14.9225
14.8203
14.7112
14.5962
14.476
14.3514
14.223
14.0916
13.9578
13.8222
13.6856
13.5483
13.411
13.2742
13.1382
13.0036
12.8706
12.7397
12.6112
12.4854
12.3625
12.2427
12.1263
12.0134
11.9041
11.7986
11.6971
11.5994
11.5058
11.4162
11.3307
11.2493
11.172
11.0987
11.0295
10.9642
10.9029
10.8456
10.7921
10.7424
10.6965
10.6543
10.6157
10.5808
10.5494
10.5215
10.4972
10.4763
10.4575
10.4301
10.3664
10.7374
2402.26
-469.721
-130.323
-18.6062
-0.402232
2.73993
3.99422
4.87006
5.59067
6.24071
6.85667
7.45129
8.02792
8.58683
9.12731
9.64848
10.1494
10.6293
11.0875
11.5234
11.9365
12.3265
12.6933
13.0366
13.3565
13.653
13.9262
14.1763
14.4036
14.6083
14.791
14.952
15.0918
15.211
15.3101
15.3899
15.4511
15.4943
15.5204
15.5301
15.5243
15.5039
15.4696
15.4224
15.3632
15.2929
15.2122
15.1222
15.0237
14.9175
14.8045
14.6855
14.5612
14.4325
14.3
14.1646
14.0268
13.8872
13.7466
13.6055
13.4644
13.3238
13.1841
13.0459
12.9094
12.7751
12.6433
12.5142
12.3882
12.2655
12.1462
12.0305
11.9186
11.8106
11.7066
11.6066
11.5108
11.4192
11.3317
11.2485
11.1694
11.0945
11.0238
10.9571
10.8945
10.836
10.7814
10.7307
10.6839
10.6409
10.6017
10.5661
10.5342
10.506
10.4813
10.4601
10.4411
10.4145
10.358
10.7081
2402.26
-469.711
-130.305
-18.5814
-0.370482
2.77855
4.03958
4.92201
5.64903
6.3053
6.92727
7.52767
8.10983
8.67399
9.21946
9.74532
10.2507
10.7346
11.1965
11.6358
12.052
12.4448
12.8139
13.1593
13.4808
13.7787
14.0528
14.3036
14.5312
14.736
14.9183
15.0786
15.2175
15.3354
15.4331
15.5111
15.5702
15.6112
15.6348
15.6418
15.6331
15.6096
15.5721
15.5216
15.4588
15.3848
15.3005
15.2066
15.1042
14.9941
14.8771
14.754
14.6257
14.4929
14.3565
14.217
14.0752
13.9317
13.7872
13.6422
13.4973
13.353
13.2097
13.0679
12.928
12.7904
12.6553
12.5231
12.3941
12.2684
12.1462
12.0279
11.9134
11.8029
11.6965
11.5943
11.4964
11.4027
11.3134
11.2283
11.1476
11.0711
10.9989
10.9309
10.867
10.8073
10.7517
10.7001
10.6524
10.6086
10.5687
10.5326
10.5002
10.4715
10.4465
10.4251
10.4059
10.3801
10.3297
10.6604
2402.26
-469.701
-130.289
-18.5592
-0.342022
2.81315
4.0802
4.96851
5.70125
6.36305
6.99035
7.59586
8.18289
8.75168
9.30152
9.83146
10.3406
10.8281
11.2932
11.7353
12.1541
12.5491
12.9201
13.267
13.5899
13.8886
14.1634
14.4145
14.642
14.8465
15.0281
15.1876
15.3252
15.4417
15.5376
15.6137
15.6706
15.7091
15.73
15.7342
15.7225
15.6958
15.655
15.601
15.5347
15.457
15.3688
15.2712
15.1648
15.0507
14.9297
14.8026
14.6703
14.5335
14.393
14.2495
14.1038
13.9564
13.8081
13.6593
13.5106
13.3627
13.2158
13.0706
12.9273
12.7863
12.6481
12.5128
12.3807
12.2522
12.1273
12.0062
11.8892
11.7763
11.6676
11.5632
11.4632
11.3676
11.2764
11.1895
11.1072
11.0291
10.9555
10.8862
10.8211
10.7603
10.7036
10.6511
10.6026
10.5581
10.5176
10.4809
10.448
10.419
10.3937
10.372
10.3527
10.3277
10.2825
10.595
2402.26
-469.693
-130.275
-18.5394
-0.316755
2.84386
4.11624
5.00973
5.74751
6.41416
7.04614
7.65611
8.2474
8.8202
9.37379
9.90723
10.4196
10.91
11.3778
11.8223
12.2431
12.6398
13.0123
13.3604
13.6841
13.9834
14.2584
14.5094
14.7366
14.9404
15.1211
15.2794
15.4155
15.5303
15.6243
15.6982
15.7527
15.7886
15.8067
15.808
15.7931
15.7632
15.7189
15.6614
15.5914
15.51
15.4181
15.3165
15.2062
15.0882
14.9632
14.8321
14.6957
14.5549
14.4105
14.263
14.1134
13.9621
13.81
13.6574
13.5051
13.3536
13.2032
13.0545
12.9079
12.7637
12.6223
12.484
12.349
12.2176
12.09
11.9664
11.8469
11.7316
11.6207
11.5142
11.4121
11.3146
11.2215
11.133
11.049
10.9695
10.8945
10.8239
10.7577
10.6957
10.6381
10.5847
10.5354
10.4902
10.449
10.4118
10.3785
10.3491
10.3236
10.3017
10.2823
10.258
10.2173
10.5126
2402.27
-469.685
-130.263
-18.5221
-0.294576
2.8708
4.14783
5.04585
5.788
6.45887
7.09489
7.70871
8.30363
8.87984
9.43661
9.97299
10.488
10.9809
11.4508
11.8971
12.3195
12.7176
13.0911
13.4399
13.7641
14.0635
14.3384
14.589
14.8155
15.0183
15.1979
15.3547
15.4892
15.602
15.6938
15.7653
15.8173
15.8505
15.8657
15.8638
15.8458
15.8124
15.7647
15.7035
15.6299
15.5447
15.4489
15.3435
15.2293
15.1072
14.9782
14.8431
14.7028
14.558
14.4096
14.2583
14.1047
13.9497
13.7937
13.6375
13.4816
13.3265
13.1727
13.0206
12.8707
12.7234
12.5789
12.4376
12.2998
12.1656
12.0354
11.9092
11.7873
11.6697
11.5566
11.448
11.3439
11.2445
11.1497
11.0596
10.974
10.8931
10.8167
10.7449
10.6775
10.6145
10.5559
10.5016
10.4516
10.4057
10.3639
10.3262
10.2926
10.2628
10.237
10.2149
10.1955
10.1718
10.135
10.4143
2402.27
-469.679
-130.252
-18.5071
-0.275376
2.89411
4.17514
5.07704
5.82294
6.49741
7.13685
7.75391
8.35188
8.93093
9.49033
10.0291
10.5463
11.041
11.5126
11.9604
12.3839
12.7828
13.157
13.5061
13.8303
14.1295
14.404
14.6538
14.8794
15.081
15.2591
15.4141
15.5467
15.6574
15.7469
15.8159
15.8651
15.8954
15.9076
15.9025
15.8811
15.8443
15.793
15.7282
15.6509
15.5619
15.4622
15.3528
15.2347
15.1087
14.9757
14.8367
14.6924
14.5437
14.3913
14.2361
14.0787
13.9199
13.7603
13.6004
13.4409
13.2823
13.1251
12.9698
12.8167
12.6662
12.5187
12.3745
12.2339
12.0971
11.9642
11.8356
11.7113
11.5915
11.4762
11.3655
11.2596
11.1583
11.0618
10.9701
10.883
10.8007
10.723
10.6499
10.5815
10.5175
10.458
10.4029
10.3521
10.3055
10.2632
10.225
10.191
10.1609
10.1349
10.1126
10.0931
10.0701
10.0366
10.3008
2402.27
-469.673
-130.243
-18.4943
-0.259039
2.91392
4.19833
5.1035
5.85254
6.53001
7.17229
7.79203
8.39248
8.97383
9.53532
10.076
10.5948
11.091
11.5637
12.0124
12.4367
12.8361
13.2104
13.5595
13.8834
14.1821
14.4557
14.7045
14.9288
15.129
15.3053
15.4585
15.5889
15.6973
15.7842
15.8505
15.8969
15.9242
15.9332
15.9248
15.9
15.8597
15.8048
15.7363
15.6552
15.5623
15.4588
15.3455
15.2234
15.0935
14.9566
14.8135
14.6653
14.5127
14.3565
14.1974
14.0363
13.8737
13.7104
13.547
13.384
13.222
13.0615
12.9029
12.7466
12.5931
12.4427
12.2956
12.1523
12.0128
11.8775
11.7464
11.6198
11.4978
11.3804
11.2678
11.1599
11.0569
10.9587
10.8654
10.7769
10.6932
10.6143
10.54
10.4705
10.4055
10.3451
10.2892
10.2377
10.1906
10.1477
10.1091
10.0746
10.0443
10.018
9.99569
9.97615
9.95369
9.92313
10.1729
2402.27
-469.669
-130.235
-18.4837
-0.245445
2.93039
4.21758
5.12543
5.87704
6.55693
7.2015
7.82335
8.42576
9.00888
9.57195
10.114
10.634
11.1311
11.6046
12.0538
12.4784
12.8778
13.2519
13.6006
13.9239
14.2217
14.4943
14.7418
14.9646
15.1629
15.3374
15.4884
15.6165
15.7224
15.8066
15.8701
15.9134
15.9376
15.9433
15.9316
15.9033
15.8594
15.8008
15.7286
15.6437
15.547
15.4396
15.3224
15.1963
15.0624
14.9216
14.7746
14.6225
14.466
14.306
14.1432
13.9783
13.8121
13.6452
13.4782
13.3118
13.1464
12.9826
12.8208
12.6615
12.505
12.3517
12.2019
12.0558
11.9138
11.776
11.6426
11.5138
11.3896
11.2702
11.1556
11.0459
10.9412
10.8414
10.7466
10.6567
10.5716
10.4915
10.4161
10.3455
10.2796
10.2184
10.1617
10.1095
10.0618
10.0184
9.97936
9.94454
9.91393
9.88746
9.86499
9.84545
9.82354
9.79549
10.0318
2402.27
-469.665
-130.229
-18.4751
-0.23447
2.94366
4.23307
5.14305
5.89666
6.57844
7.22475
7.84821
8.45206
9.03645
9.60061
10.1436
10.6643
11.1619
11.6357
12.0851
12.5095
12.9086
13.2822
13.6302
13.9525
14.2491
14.5203
14.7663
14.9872
15.1837
15.3559
15.5046
15.6302
15.7334
15.8148
15.8753
15.9156
15.9365
15.9389
15.9237
15.8918
15.8443
15.782
15.706
15.6172
15.5167
15.4054
15.2843
15.1543
15.0165
14.8717
14.7209
14.5649
14.4046
14.2408
14.0742
13.9057
13.7359
13.5654
13.395
13.2252
13.0565
12.8895
12.7246
12.5623
12.4029
12.2468
12.0942
11.9456
11.801
11.6608
11.5251
11.3941
11.2678
11.1464
11.03
10.9186
10.8122
10.7108
10.6145
10.5232
10.4369
10.3556
10.2791
10.2075
10.1407
10.0787
10.0212
9.9684
9.92008
9.87622
9.83674
9.8016
9.77073
9.74408
9.72149
9.70196
9.68058
9.65471
9.87817
2402.27
-469.662
-130.224
-18.4684
-0.225986
2.9539
4.24499
5.15655
5.91165
6.5948
7.24235
7.86692
8.47173
9.05692
9.62172
10.1651
10.6861
11.1839
11.6576
12.1067
12.5306
12.9291
13.3018
13.6487
13.9697
14.265
14.5345
14.7786
14.9976
15.1918
15.3617
15.5079
15.6308
15.7311
15.8096
15.867
15.904
15.9216
15.9206
15.9019
15.8664
15.8152
15.7492
15.6693
15.5767
15.4723
15.3571
15.2321
15.0983
14.9566
14.8079
14.6533
14.4934
14.3294
14.1618
13.9916
13.8194
13.6461
13.4722
13.2983
13.1252
12.9533
12.7832
12.6152
12.4499
12.2877
12.1288
11.9736
11.8224
11.6755
11.5329
11.395
11.2618
11.1335
11.0102
10.892
10.7788
10.6708
10.5679
10.4701
10.3775
10.29
10.2075
10.13
10.0574
9.98976
9.92689
9.86876
9.81529
9.76643
9.72209
9.68223
9.64676
9.61565
9.58883
9.56615
9.54663
9.52576
9.50182
9.7131
2402.28
-469.66
-130.221
-18.4636
-0.219861
2.96126
4.25352
5.16617
5.92225
6.60628
7.2546
7.8798
8.48512
9.07067
9.63568
10.1791
10.7
11.1975
11.6707
12.1192
12.5423
12.9398
13.3113
13.6569
13.9764
14.2699
14.5375
14.7796
14.9963
15.1881
15.3555
15.499
15.6191
15.7164
15.7918
15.846
15.8797
15.8939
15.8893
15.867
15.8279
15.773
15.7032
15.6196
15.5231
15.4148
15.2958
15.1669
15.0292
14.8836
14.7311
14.5726
14.4091
14.2412
14.07
13.8962
13.7205
13.5436
13.3663
13.1892
13.0128
12.8377
12.6645
12.4936
12.3254
12.1604
11.9988
11.8411
11.6874
11.538
11.3932
11.2531
11.1179
10.9876
10.8624
10.7424
10.6276
10.518
10.4136
10.3145
10.2206
10.1318
10.0482
9.96973
9.89624
9.82771
9.76407
9.70526
9.65119
9.6018
9.55701
9.51677
9.48101
9.44967
9.42269
9.39992
9.38044
9.36005
9.3378
9.5375
2402.28
-469.659
-130.219
-18.4605
-0.215963
2.96591
4.25886
5.17211
5.92872
6.61317
7.26181
7.88721
8.49259
9.07809
9.64289
10.186
10.7064
11.2032
11.6757
12.1231
12.5451
12.9413
13.3114
13.6553
13.9729
14.2645
14.53
14.7698
14.9841
15.1734
15.3381
15.4787
15.5958
15.6901
15.7623
15.8131
15.8434
15.8541
15.846
15.8201
15.7773
15.7186
15.645
15.5576
15.4573
15.3452
15.2222
15.0895
14.9479
14.7985
14.6423
14.48
14.3127
14.1412
13.9664
13.789
13.6098
13.4295
13.2489
13.0685
12.8889
12.7108
12.5346
12.3607
12.1898
12.022
11.8578
11.6975
11.5415
11.3898
11.2427
11.1005
10.9633
10.8311
10.7041
10.5824
10.4659
10.3548
10.249
10.1485
10.0534
9.96347
9.8788
9.7993
9.72491
9.65556
9.59119
9.53171
9.47706
9.42716
9.38195
9.34135
9.3053
9.27374
9.24662
9.22377
9.20433
9.1844
9.16366
9.35234
2402.28
-469.658
-130.217
-18.459
-0.214159
2.96801
4.2612
5.17461
5.9313
6.61575
7.26428
7.88946
8.49452
9.07956
9.64379
10.1862
10.7057
11.2015
11.6728
12.119
12.5396
12.9341
13.3025
13.6445
13.9602
14.2495
14.5127
14.75
14.9617
15.1483
15.3101
15.4477
15.5617
15.6528
15.7217
15.7692
15.796
15.8032
15.7914
15.7618
15.7153
15.6529
15.5755
15.4843
15.3801
15.2642
15.1374
15.0008
14.8555
14.7023
14.5423
14.3763
14.2054
14.0303
13.8519
13.671
13.4884
13.3047
13.1208
12.9372
12.7546
12.5734
12.3943
12.2176
12.0439
11.8735
11.7067
11.544
11.3856
11.2317
11.0825
10.9382
10.799
10.6649
10.5362
10.4128
10.2948
10.1822
10.075
9.97322
9.87685
9.78583
9.70013
9.61968
9.54442
9.47428
9.40919
9.34908
9.29387
9.24349
9.19786
9.15692
9.1206
9.08884
9.06158
9.03867
9.01927
8.99979
8.98038
9.15858
2402.28
-469.658
-130.217
-18.4591
-0.214312
2.96773
4.26072
5.17389
5.93025
6.61429
7.26232
7.8869
8.49126
9.07548
9.63878
10.1801
10.6985
11.193
11.6629
12.1074
12.5263
12.919
13.2854
13.6253
13.9386
14.2256
14.4863
14.7209
14.9299
15.1136
15.2724
15.4069
15.5177
15.6055
15.671
15.715
15.7384
15.7419
15.7265
15.6932
15.643
15.5767
15.4956
15.4005
15.2926
15.1728
15.0423
14.9019
14.7528
14.5959
14.4321
14.2625
14.088
13.9093
13.7274
13.5431
13.3571
13.1702
12.9831
12.7964
12.6107
12.4266
12.2446
12.0652
11.8888
11.7158
11.5466
11.3815
11.2207
11.0646
10.9134
10.7671
10.626
10.4901
10.3597
10.2346
10.1151
10.0011
9.89256
9.78954
9.692
9.59991
9.5132
9.43183
9.35573
9.28483
9.21906
9.15834
9.10259
9.05174
9.00572
8.96445
8.92787
8.89591
8.86853
8.84556
8.82621
8.80716
8.78896
8.95716
2402.28
-469.659
-130.219
-18.4606
-0.21629
2.96522
4.25764
5.17016
5.92582
6.60907
7.25623
7.87987
8.48317
9.06624
9.62828
10.1682
10.6851
11.178
11.6462
12.0889
12.5058
12.8964
13.2606
13.5981
13.909
14.1934
14.4514
14.6833
14.8893
15.07
15.2257
15.357
15.4645
15.5489
15.611
15.6515
15.6712
15.6711
15.6521
15.6151
15.5611
15.4911
15.4061
15.3073
15.1956
15.072
14.9377
14.7936
14.6407
14.4801
14.3127
14.1395
13.9614
13.7793
13.594
13.4063
13.2171
13.027
12.8367
12.6469
12.4583
12.2713
12.0865
11.9044
11.7254
11.5499
11.3783
11.2109
11.0479
10.8897
10.7364
10.5882
10.4452
10.3076
10.1755
10.0489
9.92792
9.8125
9.70268
9.59846
9.49979
9.40665
9.31898
9.23672
9.15981
9.08818
9.02174
8.96043
8.90417
8.85287
8.80647
8.76488
8.72806
8.69592
8.66842
8.64539
8.6261
8.60745
8.59034
8.74902
2402.28
-469.66
-130.221
-18.4634
-0.219959
2.96066
4.25213
5.16365
5.91825
6.60038
7.24634
7.86869
8.47062
9.05223
9.61271
10.151
10.6661
11.1572
11.6233
12.064
12.4787
12.867
13.2287
13.5637
13.872
14.1537
14.4088
14.6377
14.8407
15.0182
15.1707
15.2987
15.4029
15.4839
15.5424
15.5793
15.5955
15.5917
15.569
15.5282
15.4705
15.3967
15.308
15.2054
15.0899
14.9626
14.8246
14.6768
14.5202
14.356
14.1851
14.0083
13.8267
13.6412
13.4525
13.2616
13.0691
12.8759
12.6825
12.4898
12.2983
12.1085
11.921
11.7363
11.5547
11.3768
11.2028
11.0332
10.8681
10.7078
10.5525
10.4024
10.2577
10.1184
9.98468
9.85658
9.73414
9.61738
9.50631
9.40091
9.30115
9.207
9.11839
9.03528
8.95759
8.88525
8.81818
8.7563
8.69954
8.64781
8.60104
8.55916
8.5221
8.48979
8.46217
8.4391
8.41986
8.4016
8.38547
8.53508
2402.27
-469.662
-130.223
-18.4674
-0.225188
2.95419
4.24438
5.15458
5.9078
6.58848
7.23293
7.85369
8.45396
9.03382
9.59246
10.1288
10.642
11.1309
11.5948
12.0332
12.4454
12.8312
13.1904
13.5227
13.8282
14.1069
14.3591
14.5849
14.7848
14.959
15.1082
15.2328
15.3336
15.4111
15.4661
15.4994
15.5119
15.5044
15.478
15.4335
15.3721
15.2946
15.2021
15.0958
14.9766
14.8456
14.7038
14.5524
14.3922
14.2244
14.05
13.8698
13.6848
13.4959
13.3039
13.1098
12.9142
12.7179
12.5216
12.3259
12.1316
11.9391
11.7489
11.5617
11.3777
11.1974
11.0212
10.8493
10.6821
10.5198
10.3626
10.2107
10.0643
9.92335
9.78807
9.65851
9.53469
9.41664
9.30435
9.19782
9.09701
9.00188
8.91238
8.82844
8.74999
8.67697
8.60929
8.54686
8.48962
8.43748
8.39036
8.3482
8.31091
8.27843
8.25071
8.22759
8.20841
8.19052
8.17527
8.31625
2402.27
-469.664
-130.227
-18.4726
-0.231845
2.94599
4.23459
5.14316
5.8947
6.57365
7.2163
7.8352
8.43354
9.0114
9.56795
10.1022
10.613
11.0996
11.5611
11.997
12.4066
12.7898
13.1461
13.4756
13.7781
14.0539
14.3029
14.5256
14.7222
14.8931
15.0389
15.1601
15.2574
15.3313
15.3827
15.4124
15.4213
15.4101
15.38
15.3318
15.2666
15.1854
15.0893
14.9792
14.8563
14.7217
14.5763
14.4213
14.2576
14.0863
13.9084
13.7248
13.5364
13.3443
13.1491
12.9518
12.7531
12.5539
12.3547
12.1562
11.9591
11.764
11.5713
11.3815
11.1951
11.0126
10.8341
10.6602
10.4909
10.3267
10.1677
10.014
9.86588
9.72338
9.58661
9.45563
9.33048
9.21118
9.09772
8.99009
8.88827
8.7922
8.70183
8.61709
8.53792
8.46424
8.39596
8.33302
8.27531
8.22277
8.17532
8.13287
8.09537
8.06274
8.03491
8.01176
7.99263
7.97509
7.96065
8.0934
2402.27
-469.667
-130.231
-18.4787
-0.239805
2.9362
4.22294
5.12961
5.8792
6.55614
7.19675
7.81354
8.4097
8.98532
9.53957
10.0714
10.5798
11.0639
11.5228
11.9559
12.3628
12.7431
13.0966
13.423
13.7225
13.9951
14.241
14.4604
14.6536
14.8212
14.9636
15.0813
15.175
15.2453
15.2931
15.3192
15.3244
15.3096
15.2758
15.2239
15.155
15.0701
14.9703
14.8566
14.7301
14.5918
14.4429
14.2843
14.1172
13.9424
13.7611
13.5742
13.3826
13.1872
12.9889
12.7886
12.5869
12.3848
12.1827
11.9815
11.7818
11.5841
11.3889
11.1967
11.008
10.8232
10.6426
10.4666
10.2954
10.1293
9.96852
9.81316
9.66341
9.51939
9.38117
9.24882
9.12238
9.00187
8.88729
8.77861
8.6758
8.57882
8.48761
8.40211
8.32224
8.24792
8.17908
8.11562
8.05748
8.00455
7.95678
7.91407
7.87635
7.84357
7.81565
7.79245
7.77338
7.75617
7.74246
7.86739
2402.27
-469.67
-130.236
-18.4858
-0.248944
2.92497
4.2096
5.11412
5.86152
6.53623
7.17455
7.789
8.38278
8.95595
9.50769
10.037
10.5427
11.0241
11.4802
11.9105
12.3145
12.6918
13.0422
13.3656
13.6619
13.9313
14.1739
14.3899
14.5798
14.7439
14.8828
14.997
15.0871
15.1539
15.1981
15.2205
15.222
15.2036
15.1661
15.1106
15.038
14.9495
14.846
14.7287
14.5986
14.4568
14.3044
14.1423
13.9718
13.7937
13.609
13.4189
13.2241
13.0256
12.8243
12.6209
12.4164
12.2114
12.0066
11.8028
11.6004
11.4002
11.2026
11.0081
10.8172
10.6302
10.4476
10.2696
10.0965
9.92857
9.76603
9.60903
9.45772
9.31221
9.1726
9.03893
8.91125
8.78957
8.6739
8.5642
8.46045
8.36259
8.27058
8.18433
8.10379
8.02886
7.95947
7.89553
7.83695
7.78366
7.73557
7.6926
7.65469
7.62176
7.59374
7.57051
7.5515
7.53459
7.52156
7.63904
2402.27
-469.673
-130.242
-18.4937
-0.25914
2.91246
4.19475
5.09689
5.84189
6.51415
7.14998
7.76191
8.3531
8.92363
9.47268
9.99921
10.5022
10.9807
11.4339
11.8612
12.2622
12.6364
12.9837
13.3038
13.5969
13.863
14.1022
14.3148
14.5013
14.6619
14.7972
14.9079
14.9944
15.0576
15.0982
15.117
15.1149
15.0928
15.0517
14.9925
14.9164
14.8242
14.7172
14.5963
14.4627
14.3174
14.1616
13.9961
13.8222
13.6408
13.453
13.2596
13.0617
12.8602
12.6559
12.4497
12.2423
12.0346
11.8271
11.6207
11.4158
11.2132
11.0132
10.8165
10.6234
10.4344
10.2497
10.0698
9.89489
9.72523
9.56101
9.40243
9.24961
9.10268
8.96171
8.82677
8.6979
8.5751
8.45837
8.34769
8.24303
8.14433
8.05153
7.96458
7.88338
7.80786
7.73794
7.67353
7.61455
7.5609
7.51251
7.4693
7.43119
7.39811
7.37001
7.34674
7.32778
7.31117
7.29874
7.40915
2402.27
-469.677
-130.248
-18.5023
-0.270277
2.89881
4.17855
5.07813
5.82052
6.49016
7.12332
7.73253
8.32097
8.88871
9.43492
9.95855
10.4586
10.9341
11.3843
11.8085
12.2063
12.5774
12.9214
13.2383
13.528
13.7907
14.0265
14.2357
14.4187
14.5758
14.7076
14.8147
14.8976
14.9572
14.9942
15.0094
15.0037
14.978
14.9333
14.8705
14.7908
14.6951
14.5846
14.4602
14.3232
14.1745
14.0152
13.8465
13.6693
13.4847
13.2937
13.0972
12.8963
12.6918
12.4846
12.2756
12.0655
11.8551
11.6451
11.4361
11.2288
11.0238
10.8216
10.6227
10.4275
10.2365
10.0499
9.86812
9.69144
9.52008
9.35426
9.19414
9.03988
8.89157
8.7493
8.61314
8.48311
8.35922
8.24148
8.12986
8.02432
7.9248
7.83126
7.74362
7.66179
7.58571
7.51528
7.45042
7.39103
7.33704
7.28836
7.24491
7.20661
7.1734
7.14521
7.12191
7.10299
7.08666
7.07478
7.17847
2402.27
-469.681
-130.255
-18.5116
-0.282242
2.88414
4.16117
5.05801
5.79764
6.46448
7.09481
7.70116
8.2867
8.8515
9.39473
9.91535
10.4123
10.8847
11.3318
11.7528
12.1474
12.5152
12.8559
13.1694
13.4558
13.715
13.9474
14.1531
14.3326
14.4862
14.6145
14.718
14.7974
14.8534
14.8868
14.8984
14.8891
14.8598
14.8116
14.7453
14.662
14.5629
14.4489
14.3211
14.1806
14.0286
13.8661
13.6941
13.5137
13.326
13.1319
12.9324
12.7286
12.5212
12.3112
12.0994
11.8867
11.6737
11.4612
11.2498
11.0402
10.8329
10.6285
10.4275
10.2303
10.0373
9.84883
9.66528
9.48688
9.3139
9.14652
8.98493
8.82926
8.67963
8.53611
8.39876
8.26762
8.14269
8.02398
7.91144
7.80506
7.70476
7.6105
7.52219
7.43976
7.36313
7.29221
7.22691
7.16715
7.11282
7.06386
7.02018
6.9817
6.94836
6.92008
6.89674
6.87787
6.86179
6.85042
6.94773
2402.27
-469.685
-130.262
-18.5215
-0.294928
2.86861
4.14277
5.03671
5.77343
6.43733
7.0647
7.66806
8.25057
8.81232
9.35246
9.86995
10.3638
10.833
11.2768
11.6946
12.0859
12.4503
12.7877
13.0978
13.3807
13.6365
13.8654
14.0677
14.2436
14.3937
14.5184
14.6184
14.6942
14.7467
14.7765
14.7846
14.7718
14.739
14.6872
14.6174
14.5307
14.4281
14.3107
14.1796
14.0359
13.8806
13.7148
13.5396
13.3562
13.1654
12.9683
12.766
12.5592
12.3491
12.1364
11.922
11.7066
11.4911
11.2762
11.0624
10.8506
10.6411
10.4346
10.2316
10.0324
9.83749
9.64725
9.46197
9.28194
9.10738
8.93851
8.7755
8.61848
8.46757
8.32285
8.18436
8.05215
7.92622
7.80656
7.69316
7.58595
7.48491
7.38995
7.301
7.21799
7.14084
7.06944
7.00372
6.94359
6.88894
6.83971
6.7958
6.75715
6.72367
6.69531
6.67194
6.6531
6.63727
6.62634
6.7176
2402.27
-469.69
-130.269
-18.5318
-0.308232
2.85232
4.12348
5.01441
5.74809
6.40894
7.03323
7.63348
8.21287
8.77146
9.30842
9.8227
10.3133
10.7792
11.2197
11.6342
12.0221
12.3832
12.7171
13.0239
13.3033
13.5557
13.7811
13.9798
14.1523
14.2988
14.42
14.5164
14.5888
14.6377
14.664
14.6686
14.6523
14.616
14.5608
14.4876
14.3975
14.2916
14.1709
14.0365
13.8895
13.731
13.5621
13.3839
13.1974
13.0036
12.8037
12.5985
12.389
12.1761
11.9608
11.7438
11.526
11.308
11.0908
10.8748
10.6607
10.4491
10.2406
10.0356
9.83451
9.63781
9.44584
9.2589
9.07728
8.90121
8.7309
8.56652
8.40821
8.25607
8.11018
7.9706
7.83736
7.71047
7.58991
7.47566
7.36767
7.2659
7.17027
7.08071
6.99715
6.91948
6.84763
6.78151
6.72101
6.66606
6.61656
6.57244
6.53361
6.50001
6.47156
6.44815
6.42935
6.41374
6.40323
6.48875
2402.26
-469.694
-130.277
-18.5425
-0.322054
2.8354
4.10345
4.99127
5.72181
6.3795
7.00062
7.59768
8.17385
8.72921
9.26291
9.77391
10.2612
10.7238
11.161
11.5721
11.9566
12.3143
12.6448
12.948
13.2241
13.4729
13.6949
13.8901
14.059
14.2021
14.3198
14.4127
14.4816
14.527
14.5499
14.551
14.5313
14.4916
14.433
14.3565
14.2631
14.1538
14.0299
13.8923
13.7421
13.5806
13.4086
13.2274
13.0379
12.8413
12.6385
12.4306
12.2184
12.0029
11.785
11.5656
11.3453
11.1251
10.9056
10.6874
10.4712
10.2576
10.0471
9.84017
9.6373
9.43886
9.24522
9.05668
8.87354
8.69602
8.52432
8.35863
8.19907
8.04575
7.89875
7.75812
7.62389
7.49606
7.37464
7.25958
7.15084
7.04837
6.9521
6.86195
6.77784
6.69969
6.6274
6.56088
6.50004
6.44479
6.39504
6.3507
6.31171
6.27798
6.24945
6.226
6.20723
6.19183
6.18168
6.26178
2402.26
-469.699
-130.285
-18.5536
-0.336301
2.81797
4.08283
4.96743
5.69475
6.34921
6.96708
7.56088
8.13378
8.68584
9.21622
9.72389
10.2078
10.667
11.1008
11.5085
11.8897
12.2439
12.571
12.8708
13.1434
13.3888
13.6072
13.799
13.9645
14.104
14.2183
14.3078
14.3732
14.4152
14.4346
14.4323
14.4092
14.3662
14.3043
14.2245
14.1279
14.0154
13.8883
13.7476
13.5944
13.4298
13.2549
13.0708
12.8785
12.6791
12.4736
12.2629
12.0482
11.8302
11.6098
11.388
11.1654
10.9429
10.7212
10.5009
10.2827
10.0671
9.8547
9.64598
9.44136
9.24124
9.04599
8.85593
8.67132
8.4924
8.31938
8.15242
7.99166
7.83721
7.68913
7.54749
7.41231
7.2836
7.16134
7.0455
6.93604
6.8329
6.73601
6.64529
6.56067
6.48204
6.40933
6.34243
6.28126
6.22572
6.17572
6.13118
6.09202
6.05817
6.02956
6.00607
5.98732
5.9721
5.96229
6.03725
2402.26
-469.704
-130.293
-18.5649
-0.350886
2.80013
4.06172
4.94305
5.66709
6.31826
6.93283
7.52331
8.09287
8.64159
9.16862
9.67292
10.1535
10.6093
11.0397
11.444
11.8217
12.1725
12.4961
12.7925
13.0616
13.3036
13.5186
13.7069
13.8689
14.0051
14.1159
14.202
14.264
14.3026
14.3187
14.3131
14.2867
14.2404
14.1753
14.0923
13.9925
13.8769
13.7467
13.603
13.4468
13.2793
13.1015
12.9146
12.7195
12.5174
12.3093
12.0961
11.8788
11.6583
11.4356
11.2115
10.9867
10.762
10.5382
10.3159
10.0957
9.87822
9.66401
9.45353
9.24724
9.04551
8.84872
8.65718
8.47117
8.29091
8.11661
7.94844
7.78653
7.63099
7.48189
7.33928
7.20319
7.07362
6.95055
6.83397
6.72381
6.62003
6.52254
6.43128
6.34615
6.26708
6.19396
6.12669
6.0652
6.00938
5.95914
5.9144
5.87508
5.84111
5.81241
5.78888
5.77015
5.75511
5.7456
5.81569
2402.26
-469.709
-130.301
-18.5765
-0.365725
2.78198
4.04025
4.91827
5.63898
6.28681
6.89803
7.48516
8.05136
8.59671
9.12036
9.62128
10.0984
10.5509
10.9778
11.3787
11.753
12.1004
12.4206
12.7136
12.9793
13.2178
13.4294
13.6143
13.7729
13.9057
14.0132
14.0959
14.1546
14.1899
14.2027
14.1938
14.1642
14.1147
14.0464
13.9603
13.8574
13.7388
13.6057
13.459
13.2999
13.1296
12.949
12.7593
12.5616
12.3569
12.1462
11.9305
11.7108
11.488
11.263
11.0366
10.8097
10.5829
10.3571
10.1328
9.91075
9.69148
9.47552
9.26336
9.05546
8.85219
8.65392
8.46097
8.2736
8.09206
7.91654
7.7472
7.58419
7.42761
7.27752
7.13398
6.99701
6.86662
6.74279
6.62549
6.51466
6.41026
6.3122
6.22042
6.13481
6.0553
5.98178
5.91417
5.85236
5.79627
5.7458
5.70086
5.66139
5.62729
5.59851
5.57493
5.55622
5.54134
5.53209
5.59759
2402.26
-469.714
-130.309
-18.5881
-0.38074
2.76362
4.01854
4.8932
5.61055
6.25502
6.86288
7.44663
8.00945
8.55142
9.07169
9.56921
10.043
10.492
10.9156
11.3131
11.684
12.0279
12.3447
12.6343
12.8966
13.1318
13.34
13.5216
13.6768
13.8063
13.9104
13.9899
14.0453
14.0774
14.087
14.0749
14.0421
13.9896
13.9182
13.829
13.7232
13.6016
13.4656
13.316
13.1542
12.981
12.7978
12.6055
12.4052
12.198
11.9848
11.7667
11.5447
11.3197
11.0924
10.8639
10.6349
10.4061
10.1784
9.95222
9.72835
9.50734
9.28971
9.07595
8.86649
8.66175
8.46206
8.26775
8.07909
7.89632
7.71962
7.54918
7.38511
7.22753
7.07649
6.93206
6.79426
6.66308
6.53851
6.42052
6.30906
6.20406
6.10545
6.01316
5.92709
5.84716
5.77326
5.70531
5.6432
5.58685
5.53615
5.49103
5.4514
5.41718
5.38832
5.36469
5.34599
5.33125
5.32223
5.3834
2402.26
-469.719
-130.318
-18.5999
-0.395859
2.74513
3.99669
4.86798
5.58196
6.22305
6.82753
7.4079
7.96734
8.50593
9.02281
9.51694
9.98731
10.433
10.8532
11.2473
11.6148
11.9554
12.2688
12.555
12.814
13.0458
13.2508
13.429
13.581
13.7072
13.8081
13.8843
13.9365
13.9655
13.9719
13.9568
13.9209
13.8653
13.791
13.6989
13.5901
13.4657
13.3268
13.1746
13.01
12.8342
12.6484
12.4535
12.2508
12.0411
11.8256
11.6052
11.3809
11.1537
10.9244
10.6938
10.4628
10.2321
10.0025
9.77453
9.54894
9.32626
9.10702
8.89172
8.68078
8.47462
8.27358
8.07797
7.88807
7.70412
7.5263
7.35479
7.18972
7.03117
6.87924
6.73395
6.59534
6.46341
6.33814
6.21949
6.10741
6.00184
5.90271
5.80993
5.72342
5.64308
5.56882
5.50054
5.43814
5.38153
5.33061
5.2853
5.24552
5.21119
5.18224
5.15856
5.13986
5.12525
5.11644
5.17352
2402.25
-469.724
-130.326
-18.6117
-0.411016
2.7266
3.97479
4.84271
5.55331
6.19103
6.79214
7.36914
7.92521
8.46042
8.97394
9.46471
9.93171
10.374
10.7909
11.1816
11.5458
11.8831
12.1932
12.4761
12.7318
12.9603
13.162
13.337
13.4858
13.6088
13.7065
13.7796
13.8287
13.8546
13.858
13.8398
13.801
13.7425
13.6652
13.5702
13.4587
13.3315
13.1899
13.035
12.8678
12.6895
12.5011
12.3038
12.0987
11.8867
11.6689
11.4463
11.2199
10.9906
10.7592
10.5267
10.2937
10.0612
9.8298
9.60015
9.3729
9.14862
8.92785
8.71107
8.49872
8.2912
8.08886
7.89202
7.70094
7.51586
7.33697
7.16444
6.99839
6.83893
6.68613
6.54003
6.40066
6.268
6.14205
6.02277
5.9101
5.80399
5.70435
5.6111
5.52417
5.44344
5.36882
5.30023
5.23754
5.18069
5.12955
5.08407
5.04413
5.00969
4.98065
4.95692
4.93822
4.92373
4.9151
4.96833
2402.25
-469.729
-130.335
-18.6234
-0.426147
2.70811
3.95293
4.81749
5.52474
6.1591
6.75685
7.3305
7.88322
8.41509
8.92526
9.4127
9.87637
10.3154
10.7289
11.1164
11.4772
11.8112
12.1181
12.3978
12.6502
12.8756
13.074
13.2459
13.3915
13.5114
13.606
13.676
13.7221
13.745
13.7454
13.7244
13.6827
13.6213
13.5412
13.4435
13.3292
13.1994
13.0552
12.8977
12.728
12.5472
12.3564
12.1568
11.9493
11.7351
11.5151
11.2904
11.062
10.8306
10.5973
10.3629
10.1281
9.89385
9.66073
9.42943
9.2006
8.9748
8.75256
8.53437
8.32067
8.11186
7.90828
7.71025
7.51804
7.33188
7.15197
6.97846
6.81149
6.65116
6.49753
6.35065
6.21054
6.07719
5.9506
5.83071
5.71748
5.61084
5.51071
5.41702
5.32967
5.24857
5.17362
5.10471
5.04176
4.98466
4.93332
4.88766
4.84758
4.81301
4.78389
4.76011
4.7414
4.72701
4.71854
4.76814
2402.25
-469.734
-130.343
-18.6351
-0.441196
2.68972
3.9312
4.79242
5.49633
6.12736
6.72179
7.29212
7.84152
8.37008
8.87696
9.3611
9.82149
10.2572
10.6675
11.0517
11.4094
11.7401
12.0438
12.3203
12.5696
12.7918
12.9871
13.1559
13.2984
13.4153
13.5069
13.574
13.6171
13.637
13.6346
13.6107
13.5662
13.5021
13.4193
13.3189
13.202
13.0697
12.9229
12.763
12.5908
12.4077
12.2146
12.0127
11.8031
11.5867
11.3646
11.1379
10.9074
10.6742
10.439
10.2028
9.96631
9.73033
9.49558
9.26271
9.03236
8.80511
8.58147
8.36193
8.14695
7.9369
7.73214
7.53298
7.33969
7.1525
6.97161
6.79718
6.62933
6.46816
6.31374
6.16611
6.0253
5.8913
5.76408
5.64361
5.52984
5.4227
5.32211
5.22799
5.14025
5.05878
4.9835
4.9143
4.85109
4.79375
4.74221
4.69637
4.65615
4.62147
4.59226
4.56842
4.5497
4.5354
4.52706
4.57325
2402.25
-469.739
-130.351
-18.6467
-0.45611
2.67149
3.90967
4.76758
5.4682
6.09594
6.68707
7.25412
7.80026
8.32555
8.82918
9.31008
9.76724
10.1997
10.6068
10.9878
11.3423
11.67
11.9705
12.2439
12.4901
12.7092
12.9015
13.0673
13.2069
13.3207
13.4094
13.4736
13.5139
13.531
13.5258
13.4992
13.452
13.3852
13.2998
13.1969
13.0775
12.9426
12.7935
12.6311
12.4567
12.2713
12.076
11.8719
11.6602
11.4417
11.2177
10.989
10.7566
10.5216
10.2846
10.0467
9.80852
9.57094
9.33463
9.10027
8.86848
8.63984
8.41486
8.19405
7.97783
7.7666
7.56072
7.36048
7.16617
6.978
6.79618
6.62086
6.45217
6.2902
6.13503
5.98669
5.84521
5.71057
5.58277
5.46174
5.34746
5.23983
5.1388
5.04427
4.95615
4.87434
4.79874
4.72926
4.66578
4.60823
4.55649
4.51048
4.47012
4.43532
4.40602
4.38212
4.36338
4.34916
4.34094
4.38393
2402.25
-469.744
-130.359
-18.6582
-0.470843
2.65349
3.8884
4.74306
5.44042
6.06491
6.65281
7.21663
7.75955
8.28164
8.78207
9.25979
9.71378
10.1431
10.5471
10.925
11.2764
11.6009
11.8984
12.1687
12.4119
12.6281
12.8174
12.9803
13.117
13.228
13.3139
13.3752
13.4127
13.4272
13.4193
13.39
13.3402
13.2709
13.183
13.0776
12.9557
12.8185
12.6671
12.5024
12.3258
12.1382
11.9408
11.7347
11.5209
11.3005
11.0745
10.844
10.6098
10.373
10.1344
9.89479
9.65506
9.41594
9.17816
8.94237
8.70921
8.47924
8.253
8.03096
7.81358
7.60123
7.39427
7.19301
6.99772
6.80862
6.62591
6.44974
6.28025
6.11753
5.96164
5.81262
5.6705
5.53526
5.40689
5.28534
5.17056
5.06248
4.96101
4.86609
4.7776
4.69546
4.61956
4.5498
4.48608
4.42831
4.37638
4.3302
4.2897
4.25479
4.2254
4.20144
4.18268
4.16852
4.1604
4.20037
2402.25
-469.749
-130.368
-18.6695
-0.485353
2.63576
3.86746
4.71891
5.41308
6.03438
6.6191
7.17975
7.71951
8.23846
8.73575
9.21036
9.66125
10.0875
10.4884
10.8633
11.2116
11.5332
11.8277
12.0951
12.3353
12.5486
12.7351
12.8951
13.029
13.1372
13.2204
13.2791
13.3139
13.3257
13.3153
13.2835
13.2312
13.1594
13.0691
12.9613
12.8371
12.6976
12.544
12.3772
12.1984
12.0087
11.8093
11.6012
11.3855
11.1632
10.9354
10.7031
10.4673
10.2288
9.98851
9.74737
9.50613
9.26556
9.02637
8.78923
8.55476
8.32353
8.09608
7.87289
7.65439
7.44098
7.233
7.03077
6.83455
6.64456
6.46101
6.28404
6.11379
5.95034
5.79377
5.64411
5.50137
5.36556
5.23665
5.1146
4.99934
4.89082
4.78895
4.69364
4.60481
4.52235
4.44615
4.37613
4.31217
4.25419
4.20207
4.15573
4.11509
4.08007
4.05059
4.02657
4.00778
3.99368
3.98564
4.02279
2402.24
-469.753
-130.375
-18.6806
-0.4996
2.61836
3.84691
4.69521
5.38624
6.00442
6.58603
7.14358
7.68025
8.19612
8.69036
9.16192
9.60979
10.0331
10.4309
10.8028
11.1483
11.4669
11.7585
12.0231
12.2605
12.471
12.6547
12.8119
12.9431
13.0487
13.1292
13.1853
13.2176
13.2269
13.2139
13.1797
13.125
13.0508
12.9582
12.8482
12.7218
12.5802
12.4243
12.2555
12.0746
11.883
11.6816
11.4717
11.2541
11.0301
10.8006
10.5666
10.3291
10.089
9.84723
9.60461
9.36194
9.11998
8.87946
8.64103
8.40532
8.17291
7.94431
7.72002
7.50046
7.28604
7.0771
6.87394
6.67683
6.48601
6.30165
6.12392
5.95294
5.78881
5.63159
5.48131
5.338
5.20164
5.07222
4.94968
4.83398
4.72503
4.62277
4.5271
4.43793
4.35516
4.27869
4.20841
4.14422
4.08603
4.03373
3.98724
3.94646
3.91133
3.88176
3.85767
3.83885
3.8248
3.81682
3.85132
2402.24
-469.758
-130.383
-18.6914
-0.513552
2.60132
3.82678
4.67201
5.35998
5.97511
6.55367
7.10819
7.64185
8.15472
8.64597
9.11457
9.5595
9.97984
10.3748
10.7439
11.0864
11.4022
11.6911
11.9528
12.1875
12.3953
12.5763
12.7309
12.8595
12.9625
13.0405
13.0941
13.1239
13.1308
13.1155
13.0789
13.0219
12.9455
12.8507
12.7385
12.61
12.4662
12.3084
12.1375
11.9548
11.7613
11.5581
11.3463
11.127
10.9013
10.6701
10.4345
10.1955
9.95393
9.7107
9.46667
9.22264
8.97937
8.73758
8.49794
8.26105
8.02751
7.79783
7.57249
7.35194
7.13656
6.9267
6.72266
6.52472
6.3331
6.14798
5.96953
5.79786
5.63308
5.47524
5.32438
5.18051
5.04364
4.91372
4.79073
4.67459
4.56525
4.46261
4.36659
4.2771
4.19404
4.11729
4.04677
3.98236
3.92397
3.87149
3.82484
3.78394
3.74869
3.71903
3.69487
3.67602
3.66201
3.65409
3.6861
2402.24
-469.763
-130.391
-18.702
-0.527179
2.58467
3.80713
4.64936
5.33434
5.94649
6.52209
7.07366
7.60438
8.11433
8.60269
9.06841
9.51048
9.92799
10.3202
10.6864
11.0262
11.3393
11.6254
11.8845
12.1166
12.3217
12.5002
12.6522
12.7783
12.8788
12.9544
13.0055
13.033
13.0376
13.02
12.9812
12.922
12.8434
12.7465
12.6323
12.5017
12.356
12.1963
12.0235
11.8389
11.6436
11.4387
11.2252
11.0043
10.777
10.5442
10.3072
10.0666
9.82364
9.57904
9.33368
9.08837
8.84386
8.60088
8.36008
8.12208
7.88747
7.65676
7.43044
7.20894
6.99266
6.78193
6.57707
6.37833
6.18595
6.00011
5.82098
5.64866
5.48326
5.32483
5.17341
5.02902
4.89165
4.76127
4.63784
4.52129
4.41157
4.30857
4.21223
4.12243
4.03908
3.96208
3.89131
3.82669
3.7681
3.71546
3.66866
3.62762
3.59226
3.56252
3.53829
3.5194
3.50542
3.49753
3.52723
2402.24
-469.767
-130.398
-18.7124
-0.540455
2.56846
3.78799
4.6273
5.30937
5.91862
6.49134
7.04005
7.56792
8.07505
8.56059
9.02353
9.46283
9.87759
10.267
10.6306
10.9677
11.2782
11.5617
11.8182
12.0477
12.2503
12.4263
12.5759
12.6996
12.7978
12.871
12.9199
12.9451
12.9474
12.9277
12.8867
12.8254
12.7448
12.6459
12.5297
12.3973
12.2497
12.0881
11.9136
11.7272
11.5302
11.3236
11.1086
10.8861
10.6572
10.423
10.1845
9.94261
9.69827
9.45237
9.20576
8.95923
8.71356
8.46944
8.22755
7.98851
7.75289
7.52121
7.29396
7.07157
6.85443
6.64288
6.43723
6.23775
6.04465
5.85814
5.67835
5.50542
5.33943
5.18044
5.0285
4.88361
4.74577
4.61495
4.4911
4.37417
4.26407
4.16074
4.06407
3.97398
3.89036
3.81311
3.74212
3.67729
3.61851
3.5657
3.51875
3.47759
3.44212
3.41229
3.38799
3.36906
3.3551
3.34724
3.37476
2402.24
-469.771
-130.405
-18.7224
-0.553358
2.5527
3.76939
4.60587
5.28512
5.89156
6.46148
7.00741
7.53253
8.03691
8.51974
8.97998
9.4166
9.82872
10.2156
10.5765
10.9111
11.219
11.5
11.754
11.9811
12.1813
12.3549
12.5022
12.6235
12.7194
12.7904
12.8371
12.8602
12.8604
12.8386
12.7956
12.7323
12.6498
12.549
12.4309
12.2966
12.1473
11.9839
11.8077
11.6198
11.4212
11.213
10.9964
10.7724
10.5422
10.3066
10.0667
9.82351
9.5779
9.33078
9.08298
8.83531
8.58853
8.34335
8.10044
7.86041
7.62384
7.39125
7.16312
6.93989
6.72194
6.50962
6.30323
6.10304
5.90927
5.72211
5.54171
5.3682
5.20165
5.04214
4.8897
4.74434
4.60606
4.47481
4.35057
4.23326
4.12282
4.01916
3.92219
3.83182
3.74794
3.67045
3.59924
3.5342
3.47525
3.42228
3.37519
3.33389
3.29832
3.26839
3.24403
3.22506
3.21111
3.20326
3.22877
2402.24
-469.776
-130.412
-18.7322
-0.56587
2.53743
3.75136
4.58509
5.26161
5.86533
6.43256
6.9758
7.49825
7.99999
8.48019
8.93782
9.37187
9.78143
10.1657
10.5242
10.8563
11.1618
11.4404
11.692
11.9167
12.1147
12.286
12.431
12.5502
12.6439
12.7128
12.7574
12.7784
12.7766
12.7528
12.7079
12.6428
12.5584
12.4557
12.3359
12.1999
12.0489
11.8839
11.7061
11.5166
11.3165
11.1069
10.8888
10.6635
10.4318
10.195
9.95382
9.70939
9.4626
9.21432
8.96541
8.71667
8.46885
8.22267
7.9788
7.73784
7.50038
7.26693
7.03798
6.81395
6.59524
6.38219
6.17511
5.97425
5.77985
5.59208
5.4111
5.23704
5.06997
4.90996
4.75705
4.61124
4.47253
4.34089
4.21627
4.09861
3.98784
3.88387
3.78661
3.69597
3.61184
3.53412
3.4627
3.39747
3.33834
3.28521
3.23798
3.19657
3.16089
3.13087
3.10643
3.08742
3.07348
3.06564
3.08925
2402.24
-469.78
-130.419
-18.7416
-0.577974
2.52265
3.73392
4.565
5.23887
5.83998
6.40459
6.94525
7.46512
7.96431
8.44199
8.89712
9.32869
9.73579
10.1177
10.4737
10.8035
11.1066
11.3829
11.6323
11.8548
12.0505
12.2196
12.3625
12.4796
12.5713
12.6381
12.6807
12.6998
12.6961
12.6705
12.6237
12.5568
12.4707
12.3663
12.2448
12.1072
11.9546
11.7881
11.6088
11.4178
11.2163
11.0053
10.7859
10.5592
10.3263
10.0882
9.84589
9.60031
9.3524
9.10304
8.85309
8.60334
8.35455
8.10744
7.86265
7.62083
7.38252
7.14827
6.91854
6.69378
6.47435
6.26062
6.05289
5.8514
5.6564
5.46806
5.28654
5.11195
4.94439
4.78391
4.63055
4.48432
4.34521
4.21319
4.08822
3.97022
3.85914
3.75487
3.65734
3.56644
3.48207
3.40413
3.33251
3.2671
3.2078
3.15451
3.10715
3.06562
3.02983
2.99973
2.97522
2.95615
2.94222
2.93438
2.95623
2402.23
-469.784
-130.426
-18.7507
-0.58966
2.50838
3.71708
4.54561
5.21694
5.81551
6.37761
6.91578
7.43318
7.92992
8.40517
8.85789
9.28708
9.69184
10.0714
10.4252
10.7526
11.0535
11.3276
11.5748
11.7952
11.9888
12.1559
12.2968
12.4118
12.5016
12.5665
12.6072
12.6245
12.619
12.5916
12.5431
12.4745
12.3867
12.2808
12.1577
12.0186
11.8645
11.6965
11.5158
11.3234
11.1205
10.9082
10.6876
10.4597
10.2256
9.98638
9.74294
9.49628
9.24733
8.99696
8.74604
8.49535
8.24565
7.99765
7.75203
7.50939
7.2703
7.03529
6.80484
6.57937
6.35929
6.14491
5.93656
5.73449
5.53893
5.35005
5.16801
4.99294
4.82491
4.66399
4.51021
4.36358
4.2241
4.09172
3.96641
3.84809
3.73671
3.63216
3.53437
3.44322
3.35863
3.28047
3.20866
3.14307
3.08361
3.03018
2.98268
2.94103
2.90515
2.87495
2.85037
2.83126
2.81731
2.80947
2.82968
2402.23
-469.787
-130.432
-18.7594
-0.600915
2.49464
3.70087
4.52693
5.19582
5.79196
6.35165
6.88742
7.40245
7.89684
8.36976
8.82018
9.24709
9.6496
10.0269
10.3785
10.7038
11.0026
11.2746
11.5197
11.738
11.9297
12.0948
12.2338
12.3469
12.4348
12.4979
12.5369
12.5524
12.5452
12.5161
12.466
12.3958
12.3065
12.1991
12.0745
11.934
11.7785
11.6091
11.4271
11.2335
11.0293
10.8158
10.594
10.365
10.1298
9.88947
9.64499
9.39732
9.1474
8.89609
8.64425
8.39269
8.14214
7.89333
7.64691
7.40351
7.16369
6.92798
6.69685
6.47074
6.25002
6.03505
5.82613
5.6235
5.42741
5.23803
5.05552
4.87998
4.71152
4.55018
4.396
4.249
4.10916
3.97644
3.85081
3.7322
3.62052
3.51571
3.41767
3.32629
3.24148
3.16312
3.09112
3.02536
2.96574
2.91217
2.86455
2.82278
2.7868
2.75652
2.73187
2.7127
2.69875
2.69089
2.70958
2402.23
-469.791
-130.438
-18.7679
-0.611734
2.48144
3.68529
4.50899
5.17553
5.76934
6.32671
6.86019
7.37295
7.86508
8.33578
8.784
9.20874
9.6091
9.98432
10.3338
10.6571
10.9538
11.2238
11.467
11.6834
11.8731
12.0364
12.1735
12.2849
12.371
12.4324
12.4697
12.4836
12.4748
12.4442
12.3926
12.3209
12.2301
12.1212
11.9953
11.8534
11.6966
11.526
11.3428
11.1479
10.9426
10.728
10.5051
10.275
10.0388
9.79747
9.55202
9.30342
9.05259
8.80041
8.54773
8.29534
8.04401
7.79444
7.54729
7.30318
7.06268
6.82631
6.59456
6.36783
6.14654
5.93101
5.72155
5.51841
5.32183
5.13198
4.94901
4.77304
4.60417
4.44244
4.28789
4.14054
4.00036
3.86732
3.74139
3.62249
3.51055
3.40549
3.3072
3.21561
3.13059
3.05204
2.97985
2.91393
2.85416
2.80045
2.7527
2.71083
2.67475
2.64438
2.61966
2.60044
2.58648
2.5786
2.59588
2402.23
-469.794
-130.444
-18.7759
-0.622111
2.46877
3.67035
4.49178
5.15607
5.74765
6.30282
6.8341
7.34469
7.83467
8.30324
8.74937
9.17204
9.57035
9.94356
10.2911
10.6124
10.9072
11.1753
11.4166
11.6312
11.8191
11.9807
12.1161
12.2258
12.3103
12.3701
12.4058
12.4181
12.4078
12.3757
12.3227
12.2496
12.1575
12.0473
11.9201
11.777
11.619
11.4472
11.2628
11.0668
10.8605
10.6448
10.4209
10.1898
9.95262
9.71037
9.46403
9.21456
8.96289
8.7099
8.45644
8.2033
7.95123
7.70096
7.45313
7.20836
6.96723
6.73026
6.49791
6.27063
6.04879
5.83274
5.62278
5.41917
5.22212
5.03183
4.84845
4.67208
4.50282
4.34073
4.18583
4.03814
3.89764
3.76431
3.63809
3.51892
3.40673
3.30143
3.20292
3.11111
3.02589
2.94716
2.87481
2.80873
2.74881
2.69497
2.6471
2.60512
2.56894
2.5385
2.5137
2.49444
2.48046
2.47256
2.48853
2402.23
-469.798
-130.449
-18.7837
-0.632042
2.45665
3.65605
4.47532
5.13746
5.72691
6.27996
6.80915
7.31767
7.80561
8.27216
8.71629
9.13699
9.53337
9.90467
10.2503
10.5697
10.8627
11.1291
11.3686
11.5815
11.7677
11.9276
12.0614
12.1696
12.2525
12.3108
12.3451
12.356
12.3443
12.3108
12.2564
12.1821
12.0887
11.9773
11.8489
11.7046
11.5455
11.3726
11.1871
10.9901
10.7828
10.5661
10.3413
10.1093
9.87124
9.62813
9.38097
9.1307
8.87826
8.62453
8.37034
8.1165
7.86377
7.61284
7.36438
7.11902
6.8773
6.63977
6.40688
6.17907
5.95674
5.7402
5.52978
5.32572
5.12825
4.93755
4.75377
4.57703
4.40741
4.24497
4.08975
3.94175
3.80096
3.66734
3.54085
3.42143
3.309
3.20347
3.10475
3.01274
2.92733
2.84843
2.77591
2.70968
2.64963
2.59566
2.54768
2.50559
2.46932
2.43879
2.41393
2.39461
2.38061
2.37268
2.38744
2402.23
-469.801
-130.454
-18.7911
-0.641525
2.44508
3.6424
4.45961
5.1197
5.70712
6.25815
6.78535
7.2919
7.7779
8.24253
8.68477
9.10361
9.49815
9.86764
10.2115
10.5292
10.8205
11.0851
11.323
11.5343
11.719
11.8773
12.0096
12.1163
12.1977
12.2546
12.2875
12.2971
12.2841
12.2493
12.1937
12.1182
12.0236
11.9111
11.7816
11.6362
11.4761
11.3022
11.1158
10.9178
10.7095
10.492
10.2663
10.0335
9.79461
9.55073
9.3028
9.05181
8.79866
8.54424
8.28939
8.03492
7.78156
7.53004
7.28101
7.03508
6.79283
6.55478
6.32139
6.09311
5.8703
5.65333
5.44248
5.23801
5.04014
4.84906
4.66492
4.48783
4.31787
4.15512
3.99959
3.85129
3.71022
3.57634
3.4496
3.32994
3.21729
3.11154
3.01262
2.92042
2.83484
2.75576
2.68309
2.61672
2.55654
2.50244
2.45435
2.41216
2.3758
2.3452
2.32027
2.30089
2.28687
2.27892
2.29256
2402.23
-469.804
-130.459
-18.7981
-0.650559
2.43406
3.6294
4.44464
5.10278
5.68827
6.23739
6.7627
7.26738
7.75154
8.21435
8.6548
9.07188
9.46469
9.83248
10.1746
10.4907
10.7804
11.0434
11.2798
11.4896
11.6727
11.8296
11.9605
12.0658
12.146
12.2015
12.2331
12.2415
12.2273
12.1914
12.1346
12.0579
11.9623
11.8487
11.7182
11.5719
11.4108
11.236
11.0486
10.8499
10.6407
10.4224
10.1959
9.9623
9.7227
9.4781
9.22949
8.97783
8.72403
8.46899
8.21354
7.95848
7.70456
7.45249
7.20293
6.9565
6.71376
6.47523
6.24139
6.01266
5.78943
5.57205
5.3608
5.15595
4.95772
4.76629
4.58181
4.40439
4.23413
4.07107
3.91526
3.7667
3.62537
3.49124
3.36426
3.24438
3.13151
3.02556
2.92645
2.83407
2.74832
2.66909
2.59627
2.52976
2.46945
2.41524
2.36704
2.32476
2.28831
2.25763
2.23263
2.21321
2.19916
2.19118
2.20378
2402.23
-469.807
-130.464
-18.8048
-0.659144
2.42358
3.61704
4.43042
5.08671
5.67036
6.21767
6.74119
7.24411
7.72652
8.18762
8.62638
9.0418
9.43297
9.79916
10.1398
10.4543
10.7425
11.004
11.239
11.4473
11.6291
11.7846
11.9142
12.0182
12.0971
12.1515
12.1819
12.1891
12.1738
12.1368
12.079
12.0013
11.9047
11.7902
11.6588
11.5115
11.3495
11.1739
10.9857
10.7862
10.5763
10.3572
10.13
9.89571
9.65545
9.4102
9.16097
8.9087
8.65432
8.39871
8.14271
7.88712
7.63269
7.38013
7.13009
6.88319
6.64001
6.40105
6.16679
5.93766
5.71404
5.49628
5.28467
5.07947
4.88091
4.68915
4.50436
4.32665
4.1561
3.99277
3.83669
3.68787
3.5463
3.41194
3.28475
3.16465
3.05158
2.94545
2.84616
2.75361
2.6677
2.58832
2.51536
2.44872
2.38829
2.33397
2.28566
2.24329
2.20676
2.176
2.15094
2.13146
2.11739
2.10937
2.12103
2402.23
-469.81
-130.469
-18.8111
-0.667283
2.41365
3.60533
4.41693
5.07147
5.65339
6.19899
6.72082
7.22207
7.70284
8.16232
8.59949
9.01335
9.403
9.76769
10.1068
10.4199
10.7067
10.9669
11.2005
11.4075
11.588
11.7423
11.8707
11.9735
12.0512
12.1045
12.1338
12.14
12.1236
12.0857
12.0269
11.9483
11.8508
11.7354
11.6031
11.4551
11.2923
11.1159
10.927
10.7267
10.5162
10.2964
10.0685
9.83367
9.5928
9.34697
9.09718
8.84436
8.58946
8.33334
8.07685
7.82078
7.56589
7.31288
7.06241
6.8151
6.57151
6.33216
6.09752
5.86802
5.64406
5.42595
5.21401
5.0085
4.80962
4.61757
4.4325
4.25451
4.08369
3.92011
3.76379
3.61474
3.47294
3.33837
3.21097
3.09068
2.97742
2.87111
2.77165
2.67894
2.59288
2.51336
2.44027
2.3735
2.31296
2.25853
2.21013
2.16766
2.13105
2.10022
2.0751
2.05557
2.04148
2.03343
2.04421
2402.22
-469.812
-130.473
-18.8171
-0.674977
2.40426
3.59425
4.40419
5.05707
5.63736
6.18134
6.70157
7.20125
7.68048
8.13844
8.57413
8.98653
9.37475
9.73804
10.0758
10.3876
10.673
10.9319
11.1643
11.3701
11.5494
11.7026
11.8298
11.9316
12.0083
12.0605
12.0888
12.094
12.0768
12.0379
11.9783
11.8988
11.8005
11.6843
11.5513
11.4025
11.239
11.062
10.8724
10.6715
10.4603
10.24
10.0115
9.77609
9.53469
9.28835
9.03805
8.78475
8.52938
8.27281
8.01588
7.75939
7.50408
7.25068
6.99982
6.75213
6.50818
6.26848
6.0335
5.80368
5.57939
5.36098
5.14874
4.94294
4.74378
4.55146
4.36613
4.18789
4.01683
3.85301
3.69646
3.5472
3.40519
3.27042
3.14283
3.02235
2.90892
2.80245
2.70283
2.60997
2.52377
2.44412
2.3709
2.30402
2.24336
2.18884
2.14034
2.09779
2.06111
2.03021
2.00502
1.98545
1.97133
1.96324
1.97323
2402.22
-469.815
-130.477
-18.8227
-0.682232
2.39541
3.58382
4.39218
5.04351
5.62225
6.16471
6.68344
7.18165
7.65943
8.11598
8.55027
8.96131
9.3482
9.71019
10.0467
10.3572
10.6414
10.8992
11.1304
11.3351
11.5133
11.6654
11.7917
11.8924
11.9682
12.0194
12.0469
12.0512
12.0331
11.9934
11.933
11.8528
11.7538
11.6369
11.5032
11.3538
11.1897
11.012
10.8219
10.6204
10.4087
10.1878
9.95885
9.72293
9.48106
9.23426
8.98352
8.7298
8.47402
8.21705
7.95973
7.70286
7.4472
7.19344
6.94224
6.69422
6.44995
6.20994
5.97466
5.74454
5.51997
5.30128
5.08877
4.88271
4.6833
4.49074
4.30516
4.12669
3.95541
3.79138
3.63463
3.48516
3.34297
3.20801
3.08024
2.9596
2.846
2.73937
2.63961
2.54661
2.46028
2.3805
2.30717
2.24017
2.17942
2.12479
2.07621
2.03358
1.99682
1.96586
1.94061
1.92099
1.90684
1.89873
1.90798
2402.22
-469.817
-130.481
-18.828
-0.689056
2.38709
3.57401
4.3809
5.03076
5.60806
6.14909
6.66643
7.16325
7.63968
8.0949
8.5279
8.93768
9.32334
9.68413
10.0194
10.3288
10.612
10.8686
11.0988
11.3024
11.4797
11.6309
11.7562
11.856
11.9309
11.9813
12.008
12.0115
11.9927
11.9523
11.8912
11.8103
11.7106
11.5931
11.4588
11.3088
11.1442
10.966
10.7753
10.5734
10.3612
10.1398
9.91046
9.67412
9.43184
9.18465
8.93353
8.67944
8.4233
8.16598
7.90833
7.65114
7.39516
7.14109
6.8896
6.64129
6.39673
6.15644
5.9209
5.69052
5.46569
5.24676
5.03402
4.82772
4.62809
4.4353
4.24951
4.07084
3.89936
3.73513
3.57819
3.42854
3.28617
3.15104
3.02311
2.90232
2.78857
2.6818
2.5819
2.48877
2.40231
2.32242
2.24897
2.18188
2.12102
2.06631
2.01764
1.97494
1.93811
1.90708
1.88178
1.86212
1.84794
1.83979
1.84838
2402.22
-469.819
-130.484
-18.8331
-0.695479
2.37928
3.56482
4.37033
5.01883
5.59478
6.13448
6.65051
7.14605
7.62122
8.07521
8.50701
8.91562
9.30014
9.65982
9.99406
10.3024
10.5845
10.8402
11.0694
11.2721
11.4485
11.5988
11.7233
11.8223
11.8964
11.9461
11.972
11.9749
11.9554
11.9143
11.8526
11.7712
11.6709
11.5529
11.4181
11.2676
11.1025
10.9238
10.7327
10.5304
10.3178
10.096
9.8663
9.62959
9.38697
9.13944
8.888
8.6336
8.37715
8.11954
7.86161
7.60414
7.34789
7.09356
6.84181
6.59325
6.34845
6.10793
5.87215
5.64154
5.4165
5.19735
4.98439
4.77789
4.57806
4.38508
4.1991
4.02024
3.84858
3.68418
3.52706
3.37725
3.23472
3.09944
2.97136
2.85042
2.73654
2.62963
2.5296
2.43635
2.34978
2.26977
2.19623
2.12903
2.06809
2.01329
1.96455
1.92177
1.88488
1.85379
1.82844
1.80873
1.79453
1.78635
1.79434
2402.22
-469.821
-130.488
-18.8379
-0.701604
2.37193
3.55623
4.36047
5.0077
5.58239
6.12087
6.63568
7.13003
7.60403
8.05689
8.48758
8.89511
9.27859
9.63726
9.97052
10.2779
10.5591
10.8139
11.0423
11.2442
11.4197
11.5692
11.693
11.7913
11.8647
11.9138
11.9391
11.9413
11.9212
11.8796
11.8174
11.7354
11.6347
11.5162
11.381
11.23
11.0645
10.8855
10.694
10.4913
10.2784
10.0563
9.82629
9.58929
9.34638
9.09857
8.84687
8.59221
8.33551
8.07766
7.81949
7.56179
7.30531
7.05077
6.7988
6.55004
6.30503
6.0643
5.82833
5.59753
5.3723
5.15296
4.93982
4.73314
4.53313
4.33998
4.15383
3.97481
3.80299
3.63843
3.48116
3.3312
3.18853
3.0531
2.92489
2.80382
2.68981
2.58278
2.48264
2.38928
2.3026
2.22249
2.14885
2.08156
2.02053
1.96566
1.91684
1.87399
1.83704
1.8059
1.7805
1.76075
1.74652
1.73831
1.74576
2402.22
-469.823
-130.491
-18.8429
-0.707815
2.36482
3.54817
4.3513
4.99736
5.5709
6.10824
6.62192
7.11517
7.5881
8.03991
8.46959
8.87614
9.25867
9.61642
9.94879
10.2553
10.5357
10.7897
11.0173
11.2185
11.3933
11.5422
11.6652
11.7629
11.8357
11.8842
11.909
11.9107
11.8901
11.848
11.7854
11.703
11.6019
11.483
11.3474
11.1961
11.0303
10.8509
10.6592
10.4562
10.243
10.0207
9.79039
9.55315
9.31001
9.06199
8.81007
8.55521
8.29832
8.04027
7.78191
7.52403
7.26737
7.01265
6.76051
6.51157
6.2664
6.0255
5.78937
5.55841
5.33301
5.11352
4.90023
4.69339
4.49323
4.29993
4.11364
3.93447
3.76251
3.59781
3.44041
3.29031
3.14751
3.01196
2.88362
2.76243
2.64831
2.54117
2.44092
2.34745
2.26068
2.18048
2.10675
2.03938
1.97827
1.92332
1.87444
1.83153
1.79451
1.76332
1.73787
1.71809
1.70383
1.69559
1.70256
2402.22
-469.825
-130.495
-18.8493
-0.715413
2.35709
3.54029
4.34276
4.98784
5.56032
6.0966
6.60925
7.10149
7.57343
8.02428
8.45303
8.85868
9.24035
9.59728
9.92886
10.2346
10.5143
10.7676
10.9945
11.195
11.3693
11.5175
11.64
11.7372
11.8095
11.8575
11.8818
11.883
11.862
11.8196
11.7566
11.6738
11.5724
11.4532
11.3173
11.1658
10.9997
10.8201
10.6281
10.4249
10.2115
9.98901
9.75853
9.52112
9.27781
9.02963
8.77756
8.52254
8.2655
8.00731
7.74881
7.49079
7.23399
6.97913
6.72686
6.47779
6.23248
5.99146
5.75519
5.5241
5.29858
5.07896
4.86554
4.65857
4.45829
4.26486
4.07844
3.89915
3.72706
3.56225
3.40473
3.25451
3.11159
2.97593
2.84749
2.72619
2.61196
2.50472
2.40437
2.31081
2.22395
2.14366
2.06985
2.0024
1.94122
1.88621
1.83726
1.79429
1.75722
1.72598
1.70049
1.68067
1.66639
1.65813
1.66467
2402.22
-469.828
-130.498
-18.8587
-0.727861
2.34593
3.53117
4.33436
4.97907
5.55071
6.08605
6.59775
7.08905
7.56008
8.01005
8.43795
8.84279
9.22368
9.57987
9.91074
10.2158
10.4948
10.7475
10.9738
11.1738
11.3475
11.4953
11.6173
11.714
11.7859
11.8335
11.8574
11.8583
11.837
11.7942
11.7309
11.6479
11.5462
11.4268
11.2907
11.139
10.9727
10.7929
10.6008
10.3974
10.1839
9.96128
9.73068
9.49315
9.24973
9.00144
8.74926
8.49415
8.23701
7.97872
7.72012
7.46201
7.20512
6.95016
6.6978
6.44863
6.20323
5.96211
5.72574
5.49456
5.26893
5.04921
4.83568
4.62862
4.42823
4.2347
4.04818
3.86878
3.69659
3.53167
3.37405
3.22373
3.08071
2.94495
2.81641
2.69501
2.58069
2.47336
2.37292
2.27928
2.19233
2.11197
2.03808
1.97057
1.90932
1.85424
1.80523
1.76221
1.7251
1.69381
1.66828
1.64843
1.63413
1.62584
1.632
2402.2
-469.84
-130.495
-18.8685
-0.750466
2.32456
3.51633
4.32404
4.9704
5.54209
6.07685
6.58778
7.07826
7.54846
7.99762
8.42474
8.82882
9.209
9.56449
9.89471
10.1992
10.4776
10.7297
10.9555
11.155
11.3282
11.4755
11.5971
11.6935
11.765
11.8123
11.8359
11.8365
11.8149
11.772
11.7084
11.6252
11.5233
11.4038
11.2675
11.1157
10.9493
10.7694
10.5772
10.3737
10.1601
9.93743
9.70677
9.46918
9.22571
8.97736
8.72513
8.46997
8.21278
7.95445
7.6958
7.43763
7.18069
6.92568
6.67326
6.42404
6.17857
5.93739
5.70095
5.4697
5.244
5.0242
4.81061
4.60346
4.40299
4.20938
4.02277
3.84329
3.67102
3.50601
3.3483
3.1979
3.05479
2.91895
2.79032
2.66884
2.55444
2.44703
2.34651
2.2528
2.16577
2.08534
2.01139
1.94381
1.8825
1.82736
1.7783
1.73523
1.69807
1.66675
1.64119
1.6213
1.60698
1.59867
1.6045
2402.05
-469.952
-130.481
-18.8469
-0.776356
2.28517
3.48654
4.30547
4.95839
5.53298
6.06873
6.57977
7.06996
7.53966
7.9882
8.41464
8.81803
9.19749
9.55229
9.88182
10.1856
10.4634
10.7149
10.9401
11.1391
11.3118
11.4586
11.5798
11.6758
11.7469
11.7939
11.8172
11.8176
11.7958
11.7526
11.6889
11.6056
11.5036
11.3839
11.2476
11.0957
10.9293
10.7494
10.5571
10.3536
10.14
9.91732
9.68665
9.44906
9.2056
8.95726
8.70503
8.44987
8.19269
7.93436
7.67571
7.41754
7.16059
6.90557
6.65313
6.40389
6.1584
5.91719
5.68073
5.44944
5.2237
5.00386
4.79021
4.58301
4.38249
4.18882
4.00215
3.82261
3.65027
3.48519
3.32742
3.17695
3.03377
2.89785
2.76915
2.6476
2.53313
2.42565
2.32507
2.23129
2.1442
2.0637
1.98969
1.92205
1.86069
1.80551
1.7564
1.71329
1.67609
1.64472
1.61913
1.59922
1.58489
1.57656
1.5821
2400.93
-470.969
-130.713
-18.7296
-0.741644
2.24468
3.43559
4.26633
4.93096
5.51321
6.05364
6.56758
7.05951
7.53016
7.97909
8.40552
8.80862
9.18762
9.54185
9.87074
10.1739
10.451
10.7018
10.9264
11.1247
11.2968
11.4431
11.5638
11.6594
11.7302
11.7768
11.7999
11.8001
11.7781
11.7348
11.6711
11.5877
11.4857
11.366
11.2297
11.0779
10.9115
10.7317
10.5395
10.3362
10.1226
9.90004
9.66948
9.432
9.18864
8.94041
8.68829
8.43323
8.17614
7.91789
7.65932
7.40123
7.14435
6.88939
6.637
6.38781
6.14236
5.90118
5.66474
5.43346
5.20773
4.9879
4.77425
4.56704
4.3665
4.17281
3.98612
3.80654
3.63416
3.46905
3.31123
3.16072
3.01749
2.88153
2.75277
2.63117
2.51665
2.40911
2.30848
2.21465
2.12751
2.04696
1.9729
1.90522
1.84381
1.78859
1.73944
1.69629
1.65906
1.62767
1.60205
1.58211
1.56776
1.55942
1.56471
2393.55
-477.92
-133.65
-18.9712
-0.566517
2.29425
3.39687
4.20049
4.85974
5.44176
5.9833
6.49897
6.9929
7.46557
7.91645
8.34478
8.74981
9.13082
9.48716
9.81828
10.1237
10.4031
10.6563
10.8831
11.0836
11.2578
11.406
11.5285
11.6256
11.6979
11.7459
11.7703
11.7716
11.7507
11.7084
11.6455
11.563
11.4618
11.3429
11.2073
11.0561
10.8904
10.7112
10.5197
10.3169
10.1039
9.88182
9.65176
9.41475
9.17184
8.92404
8.67232
8.41764
8.16091
7.90301
7.64476
7.38696
7.13035
6.87565
6.6235
6.37452
6.12927
5.88827
5.65199
5.42086
5.19527
4.97555
4.762
4.55488
4.35441
4.16079
3.97414
3.79461
3.62227
3.45718
3.29937
3.14887
3.00564
2.86967
2.74091
2.6193
2.50476
2.3972
2.29655
2.20269
2.11552
2.03495
1.96086
1.89315
1.83172
1.77647
1.7273
1.68413
1.64687
1.61546
1.58982
1.56987
1.55551
1.54715
1.55228
2366.25
-507.044
-149.122
-22.6465
-0.554078
2.67057
3.56874
4.20954
4.76864
5.27778
5.75978
6.22728
6.68496
7.13326
7.5707
7.99512
8.40416
8.79552
9.16708
9.51693
9.84345
10.1453
10.4213
10.6707
10.8929
11.0878
11.2551
11.395
11.5079
11.5943
11.6547
11.6899
11.7007
11.6879
11.6526
11.5958
11.5185
11.4218
11.3067
11.1745
11.0262
10.863
10.686
10.4964
10.2953
10.0839
9.86324
9.63444
9.39858
9.15671
8.90984
8.65898
8.40508
8.14906
7.8918
7.63414
7.37687
7.12075
6.86648
6.61472
6.36609
6.12115
5.88043
5.6444
5.41348
5.18808
4.96852
4.7551
4.5481
4.34774
4.15419
3.96761
3.78813
3.61582
3.45075
3.29296
3.14246
2.99923
2.86325
2.73447
2.61283
2.49826
2.39068
2.28999
2.1961
2.1089
2.02829
1.95417
1.88642
1.82496
1.76967
1.72047
1.67727
1.63999
1.60856
1.5829
1.56293
1.54856
1.54025
1.54559
2664.79
-449.46
-130.069
-15.0877
2.45171
3.88732
4.15419
4.63492
5.21688
5.81106
6.38981
6.94525
7.47444
7.97585
8.44857
8.89207
9.30607
9.6905
10.0454
10.3711
10.6677
10.9356
11.1753
11.3871
11.5714
11.7289
11.86
11.9652
12.0451
12.1004
12.1316
12.1395
12.1247
12.0882
12.0306
11.9529
11.8561
11.741
11.6086
11.46
11.2963
11.1184
10.9275
10.7247
10.511
10.2876
10.0555
9.81587
9.56964
9.31789
9.06163
8.80183
8.53942
8.27531
8.01037
7.74542
7.48123
7.21856
6.95808
6.70045
6.44626
6.19608
5.9504
5.7097
5.47438
5.24483
5.02137
4.80429
4.59385
4.39025
4.19368
4.00426
3.82212
3.64734
3.47996
3.32
3.16749
3.02239
2.88467
2.75427
2.63114
2.51518
2.40632
2.30445
2.20947
2.12127
2.03975
1.96479
1.89629
1.83413
1.77823
1.72847
1.68478
1.64706
1.61525
1.58927
1.56902
1.55444
1.54632
1.5541
)
;

boundaryField
{
    xmin
    {
        type            calculated;
        value           uniform 0;
    }
    xmax
    {
        type            calculated;
        value           nonuniform List<scalar> 
100
(
2331.69
-393.27
-113.799
-13.1855
2.16604
3.42679
3.66487
4.09004
4.60376
5.12813
5.63897
6.12935
6.59672
7.03972
7.45757
7.84979
8.21613
8.55653
8.87106
9.15988
9.42323
9.6614
9.87474
10.0636
10.2285
10.3697
10.4877
10.583
10.656
10.7074
10.7377
10.7475
10.7374
10.7081
10.6604
10.595
10.5126
10.4143
10.3008
10.1729
10.0318
9.87817
9.7131
9.5375
9.35234
9.15858
8.95716
8.74902
8.53508
8.31625
8.0934
7.86739
7.63904
7.40915
7.17847
6.94773
6.7176
6.48875
6.26178
6.03725
5.81569
5.59759
5.3834
5.17352
4.96833
4.76814
4.57325
4.38393
4.20037
4.02279
3.85132
3.6861
3.52723
3.37476
3.22877
3.08925
2.95623
2.82968
2.70958
2.59588
2.48853
2.38744
2.29256
2.20378
2.12103
2.04421
1.97323
1.90798
1.84838
1.79434
1.74576
1.70256
1.66467
1.632
1.6045
1.5821
1.56471
1.55228
1.54559
1.5541
)
;
    }
    ymin
    {
        type            calculated;
        value           uniform 0;
    }
    ymax
    {
        type            calculated;
        value           nonuniform List<scalar> 
100
(
2664.79
-449.46
-130.069
-15.0877
2.45171
3.88732
4.15419
4.63492
5.21688
5.81106
6.38981
6.94525
7.47444
7.97585
8.44857
8.89207
9.30607
9.6905
10.0454
10.3711
10.6677
10.9356
11.1753
11.3871
11.5714
11.7289
11.86
11.9652
12.0451
12.1004
12.1316
12.1395
12.1247
12.0882
12.0306
11.9529
11.8561
11.741
11.6086
11.46
11.2963
11.1184
10.9275
10.7247
10.511
10.2876
10.0555
9.81587
9.56964
9.31789
9.06163
8.80183
8.53942
8.27531
8.01037
7.74542
7.48123
7.21856
6.95808
6.70045
6.44626
6.19608
5.9504
5.7097
5.47438
5.24483
5.02137
4.80429
4.59385
4.39025
4.19368
4.00426
3.82212
3.64734
3.47996
3.32
3.16749
3.02239
2.88467
2.75427
2.63114
2.51518
2.40632
2.30445
2.20947
2.12127
2.03975
1.96479
1.89629
1.83413
1.77823
1.72847
1.68478
1.64706
1.61525
1.58927
1.56902
1.55444
1.54632
1.5541
)
;
    }
    frontAndBack
    {
        type            empty;
    }
}


// ************************************************************************* //
