/*--------------------------------*- C++ -*----------------------------------*\
  =========                 |
  \\      /  F ield         | OpenFOAM: The Open Source CFD Toolbox
   \\    /   O peration     | Website:  https://openfoam.org
    \\  /    A nd           | Version:  10
     \\/     M anipulation  |
\*---------------------------------------------------------------------------*/
FoamFile
{
    format      ascii;
    class       volScalarField;
    location    "9";
    object      ddt0(T);
}
// * * * * * * * * * * * * * * * * * * * * * * * * * * * * * * * * * * * * * //

dimensions      [0 0 -1 1 0 0 0];

internalField   nonuniform List<scalar> 
10000
(
4550.32
1879.66
1946.92
1984.3
1989.97
1990.85
1991.12
1991.23
1991.28
1991.3
1991.32
1991.33
1991.34
1991.35
1991.36
1991.37
1991.38
1991.39
1991.4
1991.41
1991.42
1991.43
1991.44
1991.44
1991.45
1991.46
1991.46
1991.47
1991.47
1991.48
1991.48
1991.48
1991.49
1991.49
1991.49
1991.5
1991.5
1991.5
1991.5
1991.5
1991.51
1991.51
1991.51
1991.51
1991.51
1991.51
1991.51
1991.51
1991.5
1991.5
1991.5
1991.5
1991.5
1991.5
1991.5
1991.5
1991.49
1991.49
1991.49
1991.49
1991.49
1991.48
1991.48
1991.48
1991.48
1991.48
1991.47
1991.47
1991.47
1991.47
1991.47
1991.47
1991.46
1991.46
1991.46
1991.46
1991.46
1991.46
1991.45
1991.45
1991.45
1991.45
1991.45
1991.45
1991.45
1991.45
1991.44
1991.44
1991.44
1991.44
1991.44
1991.44
1991.44
1991.44
1991.42
1991.31
1990.41
1984.13
1958.84
2196.3
2204.28
-745.35
-496.396
-414.157
-402.89
-401.629
-401.298
-401.129
-401.04
-400.987
-400.946
-400.909
-400.875
-400.842
-400.81
-400.78
-400.75
-400.722
-400.694
-400.668
-400.644
-400.62
-400.598
-400.576
-400.557
-400.538
-400.52
-400.504
-400.489
-400.474
-400.461
-400.449
-400.439
-400.429
-400.42
-400.412
-400.405
-400.4
-400.395
-400.391
-400.388
-400.385
-400.384
-400.383
-400.383
-400.383
-400.384
-400.386
-400.388
-400.391
-400.394
-400.398
-400.402
-400.406
-400.411
-400.416
-400.421
-400.426
-400.431
-400.437
-400.443
-400.449
-400.454
-400.46
-400.466
-400.472
-400.478
-400.484
-400.489
-400.495
-400.5
-400.506
-400.511
-400.516
-400.521
-400.526
-400.531
-400.535
-400.539
-400.544
-400.548
-400.551
-400.555
-400.558
-400.562
-400.565
-400.568
-400.571
-400.573
-400.576
-400.578
-400.58
-400.582
-400.584
-400.589
-400.66
-401.418
-407.039
-431.923
-385.131
2241.14
-539.623
-218.267
-119.996
-106.225
-104.601
-104.174
-103.953
-103.83
-103.749
-103.684
-103.624
-103.568
-103.513
-103.46
-103.409
-103.359
-103.312
-103.266
-103.222
-103.181
-103.141
-103.103
-103.068
-103.035
-103.003
-102.974
-102.946
-102.92
-102.897
-102.875
-102.855
-102.836
-102.82
-102.805
-102.792
-102.781
-102.771
-102.763
-102.756
-102.75
-102.746
-102.744
-102.742
-102.742
-102.743
-102.745
-102.747
-102.751
-102.756
-102.761
-102.767
-102.773
-102.781
-102.788
-102.796
-102.805
-102.814
-102.823
-102.832
-102.842
-102.851
-102.861
-102.871
-102.88
-102.89
-102.9
-102.909
-102.919
-102.928
-102.937
-102.946
-102.955
-102.963
-102.972
-102.98
-102.987
-102.995
-103.002
-103.009
-103.016
-103.022
-103.028
-103.034
-103.039
-103.045
-103.049
-103.054
-103.058
-103.062
-103.066
-103.069
-103.073
-103.076
-103.071
-103.043
-103.164
-105.43
-118.401
-101.719
2270.17
-469.6
-132.816
-31.1104
-16.7476
-14.9961
-14.5098
-14.2498
-14.0962
-13.9897
-13.901
-13.819
-13.7405
-13.6644
-13.5906
-13.5192
-13.4503
-13.384
-13.3203
-13.2594
-13.2014
-13.1461
-13.0937
-13.044
-12.9972
-12.9531
-12.9118
-12.8732
-12.8373
-12.8041
-12.7734
-12.7454
-12.7199
-12.6968
-12.6762
-12.658
-12.642
-12.6283
-12.6167
-12.6073
-12.5998
-12.5942
-12.5905
-12.5885
-12.5881
-12.5893
-12.5919
-12.5959
-12.6011
-12.6074
-12.6148
-12.6232
-12.6325
-12.6426
-12.6533
-12.6647
-12.6766
-12.6889
-12.7017
-12.7147
-12.728
-12.7415
-12.755
-12.7687
-12.7823
-12.7959
-12.8095
-12.8228
-12.8361
-12.8491
-12.8619
-12.8744
-12.8866
-12.8985
-12.9101
-12.9213
-12.9322
-12.9427
-12.9528
-12.9624
-12.9717
-12.9806
-12.9891
-12.9971
-13.0048
-13.012
-13.0187
-13.0251
-13.0311
-13.0366
-13.0419
-13.0472
-13.0534
-13.062
-13.0702
-13.0469
-12.9154
-13.0036
-15.9712
-9.35349
2274.67
-459.972
-120.835
-18.5565
-4.0584
-2.24734
-1.71982
-1.42787
-1.24756
-1.1168
-1.005
-0.900742
-0.80046
-0.703204
-0.608827
-0.517423
-0.429149
-0.344158
-0.262573
-0.184483
-0.109949
-0.0390007
0.0283488
0.0921026
0.152275
0.208887
0.261967
0.311549
0.35767
0.400372
0.439703
0.475715
0.508467
0.538023
0.564454
0.587837
0.608258
0.625806
0.640578
0.652677
0.662209
0.669288
0.674027
0.676547
0.676968
0.675414
0.672007
0.666873
0.660134
0.651915
0.642337
0.631519
0.619579
0.606632
0.592789
0.578158
0.562843
0.546945
0.530559
0.513777
0.496687
0.47937
0.461904
0.444362
0.426813
0.409319
0.391941
0.37473
0.357739
0.341011
0.324587
0.308505
0.292798
0.277495
0.26262
0.248198
0.234246
0.220781
0.207816
0.195363
0.18343
0.172025
0.161153
0.150816
0.141019
0.131762
0.123045
0.114867
0.107221
0.100088
0.0933908
0.086828
0.0793452
0.068044
0.0483781
0.0266845
0.063158
0.24607
0.311385
2.87732
2275.37
-458.892
-119.42
-17.0208
-2.46438
-0.611914
-0.0514785
0.268214
0.473431
0.627653
0.762103
0.888427
1.01025
1.12851
1.24332
1.35455
1.46201
1.56551
1.6649
1.76006
1.85091
1.93742
2.01955
2.09731
2.17071
2.23976
2.3045
2.36497
2.42121
2.47326
2.5212
2.56508
2.60497
2.64096
2.67313
2.70157
2.7264
2.74772
2.76566
2.78033
2.79187
2.80041
2.80611
2.8091
2.80953
2.80755
2.80332
2.79697
2.78868
2.77858
2.76683
2.75356
2.73893
2.72308
2.70613
2.68822
2.66949
2.65004
2.63
2.60948
2.58859
2.56742
2.54607
2.52463
2.50319
2.48181
2.46058
2.43956
2.4188
2.39837
2.37831
2.35867
2.33949
2.3208
2.30263
2.28502
2.26799
2.25155
2.23573
2.22052
2.20596
2.19204
2.17877
2.16615
2.15419
2.14289
2.13225
2.12227
2.11295
2.10426
2.09619
2.08855
2.0807
2.07035
2.05182
2.0184
1.98489
2.03185
2.35602
3.37096
2275.6
-458.604
-119.043
-16.5877
-1.99088
-0.10569
0.482801
0.82779
1.05679
1.23392
1.39068
1.53881
1.68194
1.82097
1.956
2.08684
2.21326
2.33505
2.45203
2.56406
2.67104
2.77291
2.86965
2.96125
3.0477
3.12904
3.2053
3.27651
3.34273
3.40401
3.46043
3.51206
3.55898
3.60129
3.6391
3.67252
3.70167
3.72668
3.7477
3.76487
3.77835
3.7883
3.7949
3.7983
3.79869
3.79625
3.79114
3.78356
3.77368
3.76167
3.74772
3.73198
3.71464
3.69586
3.6758
3.65461
3.63244
3.60944
3.58574
3.56148
3.53678
3.51177
3.48654
3.46121
3.43587
3.41062
3.38554
3.36071
3.3362
3.31207
3.28838
3.26519
3.24254
3.22048
3.19904
3.17826
3.15815
3.13875
3.12007
3.10214
3.08495
3.06852
3.05287
3.03798
3.02387
3.01054
2.99799
2.98622
2.97522
2.96499
2.95552
2.94675
2.93846
2.92953
2.91636
2.89125
2.84871
2.81591
2.95582
3.43741
2275.69
-458.454
-118.844
-16.3506
-1.72233
0.190461
0.804226
1.1731
1.42515
1.62475
1.80351
1.97316
2.13732
2.29687
2.45184
2.60203
2.74716
2.88699
3.02132
3.14998
3.27286
3.38989
3.50102
3.60625
3.70557
3.79901
3.8866
3.96839
4.04443
4.11479
4.17955
4.23879
4.29261
4.34113
4.38446
4.42274
4.4561
4.48471
4.50872
4.5283
4.54365
4.55494
4.56236
4.56612
4.56642
4.56345
4.55743
4.54857
4.53706
4.52311
4.50692
4.4887
4.46863
4.4469
4.42371
4.39922
4.37361
4.34704
4.31969
4.29168
4.26318
4.23431
4.20521
4.17599
4.14677
4.11765
4.08873
4.0601
4.03184
4.00402
3.97672
3.94999
3.92389
3.89847
3.87377
3.84982
3.82665
3.8043
3.78279
3.76213
3.74233
3.72342
3.70539
3.68825
3.67201
3.65666
3.64221
3.62865
3.61599
3.60422
3.59332
3.58331
3.57414
3.56548
3.55573
3.53984
3.50755
3.45259
3.45566
3.80422
2275.73
-458.372
-118.729
-16.2059
-1.55103
0.386626
1.02417
1.41611
1.6907
1.91239
2.11281
2.30368
2.48856
2.66832
2.84294
3.01217
3.17573
3.33332
3.48471
3.62974
3.76826
3.90019
4.02548
4.14412
4.25609
4.36142
4.46015
4.55232
4.638
4.71726
4.79019
4.85689
4.91747
4.97205
5.02077
5.06378
5.10124
5.13333
5.16023
5.18214
5.19925
5.21179
5.21997
5.22402
5.22415
5.22061
5.21362
5.20343
5.19025
5.17432
5.15587
5.13512
5.1123
5.0876
5.06126
5.03346
5.0044
4.97426
4.94323
4.91148
4.87917
4.84646
4.81348
4.78038
4.74728
4.7143
4.68155
4.64913
4.61713
4.58564
4.55474
4.52448
4.49495
4.46618
4.43822
4.41112
4.38492
4.35964
4.3353
4.31193
4.28955
4.26816
4.24777
4.22839
4.21003
4.19268
4.17634
4.16102
4.14671
4.13341
4.1211
4.10979
4.0995
4.09021
4.08148
4.0707
4.04818
3.98972
3.91035
4.27778
2275.76
-458.32
-118.651
-16.1021
-1.42299
0.538162
1.19865
1.6131
1.90979
2.15321
2.37494
2.58668
2.79196
2.99158
3.18551
3.37347
3.55511
3.73015
3.89831
4.0594
4.21327
4.35983
4.49902
4.63081
4.75518
4.87218
4.98182
5.08416
5.17928
5.26725
5.34816
5.42214
5.4893
5.54979
5.60375
5.65135
5.69278
5.72823
5.75791
5.78203
5.80082
5.81451
5.82336
5.82761
5.82752
5.82333
5.81532
5.80374
5.78884
5.77089
5.75014
5.72684
5.70123
5.67355
5.64403
5.6129
5.58037
5.54666
5.51196
5.47646
5.44034
5.40378
5.36693
5.32995
5.29298
5.25615
5.21957
5.18338
5.14766
5.11251
5.07801
5.04425
5.01129
4.97919
4.948
4.91777
4.88854
4.86035
4.83321
4.80715
4.78219
4.75834
4.73562
4.71402
4.69355
4.67422
4.65601
4.63895
4.623
4.60818
4.59448
4.58189
4.57042
4.56016
4.55116
4.54244
4.52612
4.4681
4.32864
4.7659
2275.77
-458.28
-118.586
-16.0138
-1.31157
0.672303
1.35518
1.79168
2.11008
2.37483
2.61749
2.84972
3.07501
3.29414
3.50701
3.71332
3.91271
4.10484
4.28942
4.46626
4.63517
4.79606
4.94885
5.0935
5.23002
5.35841
5.47872
5.591
5.69533
5.79179
5.88049
5.96155
6.03512
6.10133
6.16037
6.21241
6.25766
6.29634
6.32866
6.35487
6.37522
6.38998
6.3994
6.40377
6.40337
6.39847
6.38936
6.37633
6.35967
6.33965
6.31656
6.29067
6.26224
6.23155
6.19884
6.16437
6.12836
6.09106
6.05268
6.01342
5.9735
5.93309
5.89238
5.85152
5.81069
5.77001
5.72963
5.68967
5.65024
5.61144
5.57338
5.53612
5.49976
5.46434
5.42994
5.3966
5.36436
5.33327
5.30335
5.27462
5.24711
5.22082
5.19578
5.17198
5.14943
5.12813
5.10808
5.08928
5.07172
5.0554
5.04032
5.02647
5.01384
5.00254
4.99281
4.98462
4.97199
4.91527
4.72634
5.24292
2275.78
-458.243
-118.527
-15.9315
-1.20686
0.799197
1.50398
1.96209
2.30177
2.58745
2.85063
3.10294
3.34784
3.58605
3.81747
4.04174
4.25848
4.46733
4.66798
4.8602
5.04381
5.21869
5.38476
5.54198
5.69034
5.82986
5.96057
6.08253
6.19582
6.30054
6.39681
6.48475
6.56451
6.63627
6.70021
6.75652
6.80544
6.84718
6.88201
6.91019
6.93199
6.94769
6.95758
6.96198
6.96118
6.95548
6.94522
6.93068
6.9122
6.89006
6.86458
6.83606
6.80479
6.77105
6.73513
6.69729
6.6578
6.61689
6.57482
6.53181
6.48808
6.44383
6.39925
6.35454
6.30985
6.26534
6.22116
6.17745
6.13432
6.0919
6.05028
6.00955
5.9698
5.93109
5.89349
5.85706
5.82184
5.78787
5.75518
5.72381
5.69376
5.66506
5.63772
5.61174
5.58713
5.56388
5.54201
5.5215
5.50235
5.48455
5.46811
5.453
5.43925
5.4269
5.4163
5.40797
5.39755
5.34251
5.11336
5.70199
2275.8
-458.209
-118.469
-15.8524
-1.10576
0.921987
1.64821
2.12748
2.48799
2.79414
3.07739
3.34934
3.6134
3.87026
4.11979
4.3616
4.59527
4.82043
5.03676
5.24398
5.44193
5.63045
5.80946
5.97892
6.13881
6.28914
6.42996
6.56133
6.68332
6.79606
6.89964
6.99423
7.07998
7.15708
7.22572
7.28612
7.33853
7.3832
7.42039
7.45039
7.4735
7.49002
7.50029
7.50461
7.50332
7.49675
7.48524
7.46914
7.44876
7.42446
7.39655
7.36536
7.3312
7.29439
7.25523
7.21401
7.17101
7.1265
7.08073
7.03396
6.98642
6.93833
6.8899
6.84133
6.79279
6.74446
6.6965
6.64906
6.60226
6.55622
6.51106
6.46688
6.42376
6.38178
6.34101
6.30151
6.26333
6.2265
6.19108
6.15708
6.12452
6.09343
6.06381
6.03568
6.00903
5.98386
5.96018
5.93799
5.91726
5.89801
5.88022
5.86389
5.84902
5.83566
5.82416
5.81537
5.80623
5.75295
5.49342
6.14067
2275.81
-458.176
-118.414
-15.7755
-1.00746
1.04148
1.78865
2.28858
2.66944
2.99557
3.29841
3.58951
3.87226
4.1473
4.41448
4.67337
4.92355
5.16459
5.39616
5.61799
5.82988
6.03166
6.22325
6.4046
6.57568
6.73651
6.88714
7.02761
7.15803
7.2785
7.38916
7.49015
7.58166
7.66387
7.73702
7.80132
7.85704
7.90445
7.94384
7.97552
7.99981
8.01703
8.02754
8.03168
8.02981
8.02228
8.00945
7.9917
7.96938
7.94284
7.91245
7.87855
7.84148
7.80157
7.75914
7.71452
7.66799
7.61986
7.57039
7.51986
7.46851
7.41659
7.36431
7.31188
7.25952
7.20738
7.15566
7.10449
7.05403
7.00441
6.95573
6.90812
6.86165
6.81643
6.77251
6.72996
6.68884
6.64919
6.61105
6.57444
6.5394
6.50595
6.47408
6.44381
6.41515
6.38809
6.36263
6.33877
6.3165
6.29582
6.27671
6.25917
6.2432
6.22884
6.21644
6.20705
6.19852
6.14694
5.86686
6.55771
2275.82
-458.143
-118.36
-15.7007
-0.911843
1.15775
1.92535
2.44542
2.8461
3.19169
3.51361
3.82335
4.12427
4.417
4.70133
4.97683
5.24303
5.49951
5.74589
5.9819
6.2073
6.42195
6.62574
6.81861
7.00053
7.17152
7.33161
7.48088
7.61943
7.74735
7.86481
7.97195
8.06897
8.15608
8.2335
8.3015
8.36034
8.41032
8.45174
8.48494
8.51027
8.52806
8.53869
8.54254
8.53998
8.53139
8.51717
8.49769
8.47335
8.44453
8.41161
8.37495
8.33492
8.29187
8.24616
8.19811
8.14805
8.09629
8.04311
7.98881
7.93366
7.8779
7.82178
7.76552
7.70933
7.65341
7.59793
7.54307
7.48897
7.43577
7.3836
7.33258
7.2828
7.23435
7.1873
7.14173
7.0977
7.05525
7.01442
6.97524
6.93775
6.90195
6.86786
6.83548
6.80483
6.77591
6.7487
6.7232
6.69941
6.67732
6.65692
6.6382
6.62115
6.60582
6.59254
6.58245
6.57407
6.52404
6.2325
6.9524
2275.83
-458.112
-118.308
-15.6281
-0.819012
1.27068
2.05814
2.59779
3.01773
3.38223
3.72266
4.0505
4.36907
4.67896
4.97993
5.27154
5.55328
5.82471
6.08544
6.33517
6.57367
6.80076
7.01634
7.22033
7.41272
7.59351
7.76274
7.92048
8.06683
8.20192
8.32588
8.43891
8.54119
8.63294
8.71442
8.7859
8.84765
8.90001
8.94329
8.97786
9.00406
9.02228
9.03291
9.03635
9.03299
9.02325
9.00754
8.98626
8.95984
8.92867
8.89316
8.8537
8.81067
8.76446
8.71543
8.66394
8.61032
8.55492
8.49803
8.43996
8.381
8.32142
8.26146
8.20138
8.14138
8.08168
8.02247
7.96393
7.90622
7.84947
7.79384
7.73943
7.68635
7.6347
7.58456
7.536
7.48908
7.44386
7.40037
7.35864
7.31872
7.2806
7.24432
7.20987
7.17726
7.14649
7.11756
7.09045
7.06517
7.0417
7.02003
7.00015
6.98206
6.96579
6.95166
6.94082
6.93226
6.88365
6.58858
7.32431
2275.84
-458.082
-118.258
-15.5579
-0.729111
1.38008
2.18679
2.74543
3.18404
3.56687
3.92525
4.27062
4.60627
4.93277
5.24985
5.55703
5.8538
6.13968
6.41427
6.67726
6.9284
7.1675
7.39445
7.60917
7.81163
8.00184
8.17985
8.34572
8.49955
8.64148
8.77167
8.89029
8.99756
9.09371
9.17901
9.25374
9.31821
9.37275
9.41771
9.45346
9.48039
9.49889
9.50938
9.51229
9.50802
9.49703
9.47974
9.45658
9.428
9.39442
9.35627
9.31395
9.26789
9.21848
9.16611
9.11115
9.05397
8.99491
8.9343
8.87247
8.8097
8.7463
8.68252
8.61862
8.55484
8.49138
8.42846
8.36626
8.30495
8.24468
8.1856
8.12784
8.07149
8.01668
7.96347
7.91194
7.86217
7.8142
7.76808
7.72384
7.68151
7.64111
7.60266
7.56616
7.53162
7.49904
7.46841
7.43972
7.41297
7.38815
7.36525
7.34425
7.32514
7.30795
7.29299
7.28139
7.27242
7.22519
6.93318
7.67326
2275.85
-458.052
-118.209
-15.4901
-0.642286
1.48576
2.31111
2.8881
3.34478
3.74532
4.12104
4.48335
4.8355
5.17804
5.51067
5.83289
6.14415
6.44397
6.73193
7.00769
7.27099
7.52165
7.75953
7.98455
8.19669
8.39594
8.58234
8.75598
8.91696
9.06541
9.20151
9.32544
9.43742
9.53771
9.62658
9.70433
9.77129
9.82781
9.87426
9.91102
9.93851
9.95715
9.96737
9.96961
9.96433
9.95198
9.93301
9.9079
9.87708
9.84103
9.80017
9.75496
9.70583
9.65318
9.59744
9.539
9.47823
9.4155
9.35117
9.28557
9.21901
9.15179
9.0842
9.0165
8.94894
8.88174
8.81513
8.7493
8.68442
8.62065
8.55816
8.49706
8.43748
8.37953
8.32328
8.26882
8.21622
8.16554
8.11681
8.07009
8.02539
7.98274
7.94215
7.90363
7.86719
7.83283
7.80053
7.77029
7.74211
7.71596
7.69185
7.66975
7.64965
7.63159
7.61582
7.60347
7.59392
7.54809
7.26444
7.99917
2275.86
-458.024
-118.162
-15.4249
-0.558654
1.5876
2.43092
3.02562
3.49971
3.91734
4.30978
4.68842
5.05647
5.41445
5.76206
6.09874
6.42395
6.73718
7.03798
7.32601
7.601
7.86275
8.11111
8.346
8.56739
8.77527
8.9697
9.15074
9.31851
9.47315
9.61484
9.74377
9.86019
9.96434
10.0565
10.1371
10.2063
10.2646
10.3123
10.3499
10.3778
10.3964
10.4062
10.4077
10.4013
10.3874
10.3667
10.3395
10.3064
10.2678
10.2242
10.1761
10.1238
10.0679
10.0088
9.94681
9.88244
9.81605
9.74799
9.67861
9.60826
9.53724
9.46584
9.39436
9.32304
9.25213
9.18185
9.1124
9.04398
8.97675
8.91087
8.84647
8.78369
8.72262
8.66336
8.60601
8.55061
8.49725
8.44596
8.39677
8.34974
8.30486
8.26217
8.22167
8.18335
8.14723
8.1133
8.08154
8.05195
8.02451
7.99921
7.97605
7.95499
7.93608
7.91954
7.90643
7.89622
7.85183
7.5806
8.3021
2275.87
-457.998
-118.117
-15.3622
-0.478304
1.68546
2.54608
3.15783
3.64867
4.08273
4.49125
4.88558
5.26892
5.64175
6.00373
6.35431
6.6929
7.01899
7.33211
7.6319
7.91807
8.19042
8.4488
8.69311
8.92332
9.13943
9.34148
9.52955
9.70375
9.86424
10.0112
10.1448
10.2654
10.3731
10.4684
10.5514
10.6227
10.6825
10.7314
10.7696
10.7977
10.8162
10.8254
10.826
10.8183
10.8029
10.7803
10.751
10.7155
10.6743
10.6279
10.5767
10.5213
10.4621
10.3995
10.334
10.2661
10.196
10.1242
10.0511
9.97692
9.9021
9.82692
9.75167
9.67661
9.602
9.52808
9.45505
9.38311
9.31244
9.2432
9.17554
9.10958
9.04543
8.9832
8.92298
8.86483
8.80881
8.75498
8.70338
8.65404
8.60698
8.56221
8.51975
8.4796
8.44175
8.40621
8.37296
8.34199
8.31329
8.28684
8.26263
8.24065
8.22091
8.20363
8.18978
8.17884
8.13597
7.88011
8.5822
2275.88
-457.972
-118.074
-15.3022
-0.401295
1.77929
2.65651
3.28461
3.79153
4.24136
4.6653
5.07468
5.47266
5.85972
6.23547
6.59936
6.95076
7.28914
7.61403
7.92505
8.22191
8.50437
8.77229
9.02557
9.26416
9.48807
9.69734
9.89205
10.0723
10.2383
10.3902
10.5282
10.6526
10.7636
10.8617
10.947
11.0201
11.0813
11.131
11.1697
11.1979
11.216
11.2245
11.224
11.2149
11.1979
11.1733
11.1418
11.1038
11.06
11.0107
10.9565
10.8979
10.8353
10.7693
10.7003
10.6287
10.5549
10.4794
10.4025
10.3246
10.246
10.167
10.088
10.0092
9.93094
9.8534
9.77681
9.70139
9.62731
9.55474
9.48384
9.41474
9.34755
9.28239
9.21933
9.15845
9.09983
9.0435
8.98951
8.93789
8.88867
8.84187
8.79748
8.75552
8.71599
8.67886
8.64415
8.61183
8.5819
8.55433
8.52911
8.50623
8.48569
8.4677
8.45312
8.44143
8.4001
8.1616
8.83965
2275.89
-457.947
-118.033
-15.2448
-0.327662
1.86902
2.76214
3.4059
3.9282
4.39311
4.8318
5.25557
5.66757
6.06821
6.45713
6.83371
7.19734
7.54746
7.88357
8.20528
8.51229
8.80437
9.08135
9.34313
9.58966
9.82094
10.037
10.238
10.4239
10.595
10.7515
10.8936
11.0215
11.1356
11.2361
11.3235
11.3982
11.4605
11.5109
11.5499
11.5779
11.5955
11.6032
11.6015
11.5909
11.5721
11.5455
11.5116
11.4711
11.4245
11.3723
11.315
11.2531
11.1872
11.1178
11.0452
10.9699
10.8925
10.8132
10.7325
10.6508
10.5685
10.4858
10.403
10.3206
10.2386
10.1575
10.0774
9.99849
9.92104
9.84518
9.77108
9.69887
9.62868
9.56061
9.49475
9.43119
9.36998
9.31119
9.25485
9.201
9.14966
9.10084
9.05457
9.01083
8.96964
8.93097
8.89483
8.86119
8.83005
8.80138
8.77518
8.75143
8.73012
8.71145
8.69617
8.6837
8.64395
8.42391
9.07471
2275.89
-457.924
-117.994
-15.19
-0.257423
1.95463
2.86292
3.52163
4.05862
4.53792
4.99069
5.42819
5.85354
6.26714
6.66859
7.05727
7.43253
7.79379
8.14056
8.47242
8.78907
9.09025
9.37579
9.6456
9.89961
10.1378
10.3603
10.5671
10.7584
10.9343
11.095
11.2408
11.3719
11.4887
11.5915
11.6807
11.7567
11.8199
11.8708
11.9098
11.9376
11.9545
11.9612
11.9582
11.946
11.9252
11.8964
11.8602
11.8171
11.7677
11.7125
11.652
11.5869
11.5176
11.4446
11.3685
11.2896
11.2084
11.1254
11.041
10.9555
10.8694
10.783
10.6965
10.6104
10.5248
10.4401
10.3565
10.2742
10.1934
10.1143
10.037
9.96175
9.88859
9.81765
9.74904
9.68282
9.61908
9.55785
9.4992
9.44315
9.38972
9.33894
9.29081
9.24533
9.2025
9.16232
9.12478
9.08985
9.05754
9.02781
9.00065
8.97604
8.954
8.93466
8.91871
8.90548
8.86729
8.66613
9.28763
2275.9
-457.902
-117.957
-15.138
-0.190579
2.03611
2.95886
3.63179
4.18276
4.67576
5.14192
5.59247
6.03051
6.45643
6.86978
7.26993
7.65622
8.02806
8.38492
8.72638
9.05213
9.3619
9.65552
9.93287
10.1939
10.4386
10.6671
10.8793
11.0755
11.2558
11.4204
11.5696
11.7037
11.8229
11.9277
12.0184
12.0955
12.1593
12.2105
12.2494
12.2767
12.2928
12.2983
12.2938
12.2799
12.2572
12.2261
12.1874
12.1416
12.0893
12.0311
11.9675
11.899
11.8263
11.7498
11.67
11.5875
11.5026
11.4159
11.3277
11.2385
11.1486
11.0585
10.9683
10.8785
10.7894
10.7012
10.6141
10.5284
10.4443
10.362
10.2816
10.2033
10.1272
10.0534
9.98206
9.91323
9.84698
9.78337
9.72244
9.66422
9.60875
9.55603
9.50608
9.45889
9.41447
9.37281
9.3339
9.29771
9.26425
9.23348
9.20539
9.17997
9.15721
9.13724
9.12064
9.10668
9.07
8.88753
9.47873
2275.91
-457.881
-117.922
-15.0886
-0.127124
2.11347
3.04994
3.73638
4.30061
4.80661
5.28547
5.7484
6.19847
6.63605
7.06067
7.47168
7.86839
8.25021
8.61659
8.9671
9.30141
9.61926
9.92045
10.2049
10.4725
10.7232
10.9572
11.1745
11.3752
11.5596
11.7278
11.88
12.0167
12.1381
12.2445
12.3365
12.4144
12.4787
12.5299
12.5686
12.5952
12.6103
12.6145
12.6085
12.5927
12.5678
12.5344
12.4931
12.4446
12.3893
12.328
12.2612
12.1894
12.1132
12.0331
11.9497
11.8635
11.775
11.6845
11.5926
11.4997
11.4061
11.3122
11.2184
11.125
11.0323
10.9406
10.8501
10.761
10.6736
10.5881
10.5046
10.4233
10.3443
10.2678
10.1938
10.1224
10.0537
9.9877
9.92453
9.86419
9.8067
9.75208
9.70034
9.65149
9.60551
9.5624
9.52214
9.48473
9.45015
9.41837
9.38939
9.36317
9.33971
9.31914
9.30192
9.28725
9.25203
9.08761
9.6483
2275.91
-457.861
-117.888
-15.0418
-0.067042
2.18672
3.13617
3.8354
4.41219
4.93048
5.42135
5.89598
6.35742
6.806
7.24125
7.66249
8.06903
8.46024
8.83556
9.19457
9.53691
9.8623
10.1706
10.4616
10.7353
10.9917
11.2308
11.4527
11.6576
11.8456
12.0169
12.172
12.3109
12.4341
12.542
12.635
12.7135
12.778
12.8291
12.8672
12.893
12.907
12.9098
12.902
12.8842
12.8571
12.8213
12.7774
12.726
12.6677
12.6033
12.5331
12.4579
12.3783
12.2947
12.2077
12.1178
12.0255
11.9314
11.8357
11.739
11.6417
11.5442
11.4468
11.3498
11.2536
11.1583
11.0644
10.9721
10.8815
10.7928
10.7063
10.622
10.5402
10.4609
10.3842
10.3103
10.2392
10.1709
10.1055
10.0431
9.98362
9.92714
9.87365
9.82315
9.77565
9.73112
9.68956
9.65096
9.61529
9.58253
9.55267
9.52568
9.50156
9.48041
9.4626
9.44727
9.41341
9.26608
9.79668
2275.92
-457.842
-117.856
-14.9976
-0.0103115
2.25588
3.21759
3.92888
4.51751
5.0474
5.54959
6.03524
6.50737
6.9663
7.41155
7.8424
8.25816
8.65816
9.04187
9.40881
9.75864
10.0911
10.4059
10.703
10.9823
11.2439
11.4877
11.7138
11.9225
12.1138
12.288
12.4454
12.5864
12.7112
12.8202
12.9139
12.9928
13.0573
13.108
13.1455
13.1702
13.1829
13.1841
13.1745
13.1546
13.1252
13.0868
13.0401
12.9859
12.9246
12.8569
12.7834
12.7048
12.6217
12.5345
12.4439
12.3503
12.2543
12.1564
12.0571
11.9567
11.8557
11.7546
11.6535
11.553
11.4532
11.3546
11.2573
11.1617
11.0679
10.9761
10.8866
10.7994
10.7148
10.6328
10.5535
10.4771
10.4036
10.333
10.2655
10.201
10.1396
10.0813
10.0261
9.974
9.92501
9.8791
9.83627
9.79649
9.75976
9.72605
9.69534
9.66762
9.64286
9.62115
9.60279
9.58684
9.55426
9.4228
9.92421
2275.93
-457.824
-117.827
-14.956
0.0430941
2.32097
3.29422
4.01686
4.61662
5.1574
5.67022
6.16621
6.64838
7.11702
7.57162
8.01147
8.43583
8.84405
9.23555
9.60988
9.96666
10.3056
10.6265
10.9292
11.2138
11.48
11.7281
11.9581
12.1701
12.3643
12.5411
12.7006
12.8432
12.9692
13.0791
13.1733
13.2524
13.3167
13.3668
13.4034
13.427
13.4382
13.4376
13.426
13.4039
13.3721
13.3311
13.2816
13.2243
13.1599
13.089
13.0122
12.9302
12.8435
12.7527
12.6584
12.5612
12.4615
12.36
12.2569
12.1528
12.0482
11.9434
11.8388
11.7347
11.6315
11.5295
11.4289
11.33
11.233
11.1382
11.0457
10.9557
10.8683
10.7836
10.7018
10.6229
10.5471
10.4743
10.4046
10.3381
10.2748
10.2148
10.1579
10.1042
10.0538
10.0065
9.96243
9.92152
9.88376
9.84913
9.8176
9.78916
9.76378
9.74154
9.72267
9.70615
9.67475
9.55781
10.0313
2275.93
-457.807
-117.799
-14.917
0.0932059
2.38205
3.3661
4.09937
4.70956
5.26054
5.7833
6.28896
6.7805
7.2582
7.72153
8.16975
8.60212
9.01797
9.41671
9.79787
10.1611
10.506
10.8325
11.1404
11.4296
11.7001
11.9521
12.1854
12.4005
12.5973
12.7762
12.9375
13.0814
13.2084
13.319
13.4134
13.4923
13.5562
13.6056
13.6411
13.6634
13.6729
13.6705
13.6568
13.6324
13.598
13.5543
13.5019
13.4416
13.3741
13.2999
13.2197
13.1342
13.0439
12.9495
12.8516
12.7507
12.6474
12.5421
12.4353
12.3276
12.2194
12.1109
12.0028
11.8952
11.7886
11.6832
11.5793
11.4772
11.3772
11.2793
11.1839
11.091
11.0009
10.9136
10.8293
10.748
10.6699
10.5949
10.5232
10.4547
10.3896
10.3277
10.2692
10.214
10.1621
10.1136
10.0683
10.0263
9.98753
9.952
9.91968
9.89054
9.86458
9.84183
9.82248
9.80544
9.77512
9.67131
10.1182
2275.94
-457.792
-117.773
-14.8805
0.14006
2.43914
3.43329
4.17648
4.7964
5.35688
5.88891
6.40358
6.90384
7.38996
7.86138
8.31736
8.75714
9.18004
9.58545
9.97289
10.342
10.6924
11.024
11.3365
11.63
11.9044
12.1598
12.3962
12.6138
12.8129
12.9936
13.1563
13.3013
13.429
13.5399
13.6344
13.7129
13.7762
13.8246
13.8589
13.8796
13.8874
13.883
13.867
13.8402
13.8032
13.7567
13.7014
13.638
13.5672
13.4896
13.406
13.317
13.2232
13.1252
13.0237
12.9191
12.8121
12.7031
12.5927
12.4813
12.3695
12.2575
12.1458
12.0348
11.9248
11.8161
11.709
11.6037
11.5006
11.3998
11.3014
11.2058
11.113
11.0231
10.9363
10.8527
10.7723
10.6952
10.6214
10.5511
10.4841
10.4205
10.3604
10.3037
10.2505
10.2006
10.1542
10.1111
10.0714
10.035
10.0019
9.97208
9.94555
9.92232
9.90251
9.88501
9.85569
9.76359
10.1854
2275.94
-457.777
-117.748
-14.8465
0.183696
2.4923
3.49584
4.24826
4.87721
5.44652
5.98714
6.51015
7.01848
7.51238
7.99129
8.45443
8.90103
9.33039
9.74192
10.1351
10.5096
10.865
11.2011
11.5179
11.8152
12.093
12.3514
12.5904
12.8103
13.0112
13.1935
13.3573
13.5031
13.6312
13.7422
13.8364
13.9144
13.9768
14.0241
14.0569
14.076
14.0819
14.0753
14.057
14.0276
13.9879
13.9385
13.8802
13.8136
13.7396
13.6587
13.5716
13.4791
13.3817
13.2801
13.1749
13.0667
12.956
12.8433
12.7293
12.6143
12.4989
12.3834
12.2682
12.1538
12.0404
11.9284
11.8181
11.7098
11.6036
11.4998
11.3987
11.3003
11.2049
11.1125
11.0233
10.9373
10.8547
10.7755
10.6998
10.6275
10.5587
10.4935
10.4319
10.3737
10.3191
10.268
10.2204
10.1763
10.1356
10.0984
10.0646
10.0341
10.007
9.98336
9.96314
9.94522
9.91681
9.83507
10.2334
2275.95
-457.764
-117.726
-14.8149
0.22416
2.54159
3.55382
4.31476
4.95207
5.52953
6.07809
6.60879
7.12456
7.62562
8.11139
8.58109
9.03393
9.46921
9.8863
10.2847
10.664
11.0239
11.3642
11.6847
11.9854
12.2662
12.5272
12.7685
12.9903
13.1927
13.3761
13.5407
13.687
13.8153
13.9261
14.0198
14.097
14.1583
14.2043
14.2356
14.2528
14.2567
14.2479
14.2271
14.1951
14.1525
14.1002
14.0388
13.969
13.8916
13.8073
13.7168
13.6207
13.5198
13.4145
13.3057
13.1938
13.0795
12.9632
12.8455
12.727
12.608
12.489
12.3704
12.2525
12.1359
12.0206
11.9072
11.7958
11.6866
11.58
11.4761
11.375
11.277
11.1821
11.0905
11.0023
10.9175
10.8363
10.7586
10.6845
10.614
10.5471
10.4839
10.4244
10.3684
10.3161
10.2674
10.2223
10.1807
10.1427
10.1081
10.0771
10.0495
10.0254
10.0048
9.98648
9.95891
9.88625
10.2626
2275.95
-457.751
-117.705
-14.7858
0.261503
2.58706
3.60729
4.37609
5.02108
5.60604
6.16188
6.69963
7.22221
7.72981
8.22185
8.69753
9.15604
9.59667
10.0188
10.4219
10.8055
11.1695
11.5134
11.8372
12.1408
12.4242
12.6874
12.9306
13.1539
13.3575
13.5418
13.7069
13.8534
13.9816
14.0919
14.1849
14.2612
14.3212
14.3657
14.3952
14.4105
14.4122
14.401
14.3776
14.3429
14.2974
14.2421
14.1775
14.1045
14.0238
13.936
13.842
13.7424
13.6378
13.529
13.4165
13.301
13.183
13.0631
12.9419
12.8197
12.6972
12.5747
12.4527
12.3316
12.2116
12.0932
11.9767
11.8622
11.7502
11.6407
11.534
11.4303
11.3298
11.2325
11.1385
11.0481
10.9612
10.8779
10.7983
10.7224
10.6502
10.5818
10.5171
10.4562
10.399
10.3455
10.2957
10.2496
10.2071
10.1683
10.1331
10.1014
10.0733
10.0488
10.0279
10.0093
9.98246
9.91772
10.2735
2275.95
-457.74
-117.686
-14.7591
0.295782
2.62879
3.65635
4.43234
5.08436
5.67616
6.23864
6.78282
7.31159
7.82514
8.32285
8.80393
9.26755
9.71299
10.1396
10.5469
10.9344
11.3018
11.649
11.9756
12.2818
12.5673
12.8324
13.0771
13.3016
13.5061
13.6908
13.8562
14.0026
14.1304
14.2401
14.3322
14.4072
14.4659
14.5086
14.5363
14.5494
14.5488
14.5351
14.5091
14.4715
14.4231
14.3646
14.2969
14.2206
14.1364
14.0453
13.9477
13.8445
13.7364
13.6239
13.5078
13.3886
13.2671
13.1436
13.0188
12.8931
12.7671
12.6412
12.5158
12.3914
12.2682
12.1467
12.0271
11.9097
11.7947
11.6825
11.5731
11.4668
11.3638
11.2641
11.1679
11.0752
10.9863
10.901
10.8195
10.7419
10.6681
10.5981
10.5319
10.4696
10.4112
10.3566
10.3057
10.2587
10.2154
10.1758
10.1399
10.1077
10.0791
10.0542
10.0329
10.0141
9.98797
9.9301
10.2667
2275.96
-457.73
-117.669
-14.7347
0.32706
2.66686
3.70109
4.48362
5.14201
5.74003
6.30853
6.85853
7.39289
7.91179
8.4146
8.90051
9.3687
9.81842
10.249
10.66
11.0509
11.4214
11.7713
12.1004
12.4086
12.6959
12.9625
13.2083
13.4337
13.6387
13.8237
13.989
14.1351
14.2622
14.371
14.462
14.5357
14.5926
14.6336
14.6592
14.67
14.667
14.6507
14.6219
14.5814
14.53
14.4684
14.3973
14.3177
14.2302
14.1355
14.0344
13.9277
13.8159
13.6999
13.5801
13.4574
13.3322
13.2051
13.0768
12.9476
12.8182
12.6889
12.5602
12.4325
12.3062
12.1816
12.0589
11.9386
11.8208
11.7058
11.5938
11.485
11.3795
11.2775
11.179
11.0843
10.9933
10.9061
10.8228
10.7434
10.668
10.5965
10.529
10.4654
10.4057
10.3499
10.2981
10.2501
10.206
10.1657
10.1292
10.0964
10.0674
10.0422
10.0206
10.0015
9.97603
9.92408
10.2427
2275.96
-457.72
-117.653
-14.7126
0.355406
2.70134
3.7416
4.53003
5.19419
5.79779
6.37171
6.92692
7.46628
7.98996
8.49732
8.98752
9.45974
9.91322
10.3473
10.7615
11.1553
11.5284
11.8806
12.2117
12.5216
12.8104
13.078
13.3247
13.5505
13.7558
13.9407
14.1058
14.2512
14.3775
14.4852
14.5748
14.6469
14.7021
14.741
14.7644
14.7729
14.7673
14.7483
14.7166
14.6732
14.6186
14.5538
14.4795
14.3965
14.3055
14.2073
14.1027
13.9924
13.8771
13.7574
13.6341
13.5077
13.379
13.2484
13.1165
12.9839
12.8511
12.7185
12.5865
12.4556
12.3261
12.1985
12.0729
11.9497
11.8291
11.7114
11.5968
11.4855
11.3776
11.2733
11.1727
11.0758
10.9829
10.8938
10.8087
10.7277
10.6507
10.5777
10.5088
10.4439
10.3831
10.3263
10.2734
10.2246
10.1797
10.1387
10.1015
10.0683
10.0388
10.0132
9.99135
9.97205
9.94724
9.9004
10.2022
2275.96
-457.712
-117.638
-14.6927
0.380895
2.73234
3.77801
4.57172
5.24102
5.84961
6.42835
6.98819
7.53199
8.0599
8.57125
9.06522
9.54095
9.99769
10.4348
10.8517
11.2479
11.6232
11.9773
12.31
12.6213
12.9111
13.1795
13.4266
13.6527
13.8579
14.0425
14.2069
14.3515
14.4767
14.5831
14.6712
14.7415
14.7947
14.8315
14.8525
14.8585
14.8503
14.8284
14.7939
14.7474
14.6897
14.6216
14.5439
14.4575
14.3631
14.2614
14.1532
14.0393
13.9204
13.7972
13.6703
13.5404
13.4081
13.274
13.1387
13.0027
12.8665
12.7305
12.5953
12.4613
12.3287
12.198
12.0695
11.9435
11.8202
11.6999
11.5828
11.469
11.3588
11.2522
11.1495
11.0506
10.9557
10.8648
10.778
10.6953
10.6168
10.5424
10.4721
10.406
10.344
10.2862
10.2324
10.1827
10.137
10.0953
10.0576
10.0239
9.99402
9.96808
9.94595
9.92649
9.90225
9.85983
10.1459
2275.97
-457.704
-117.626
-14.6749
0.403609
2.75995
3.81042
4.60882
5.28267
5.89567
6.47865
7.04257
7.59025
8.12183
8.63666
9.13387
9.61262
10.0721
10.5117
10.9309
11.3292
11.7062
12.0618
12.3957
12.7079
12.9984
13.2673
13.5146
13.7405
13.9454
14.1294
14.2929
14.4365
14.5604
14.6653
14.7516
14.82
14.8711
14.9056
14.9242
14.9276
14.9165
14.8918
14.8542
14.8046
14.7437
14.6723
14.5913
14.5014
14.4035
14.2983
14.1866
14.0691
13.9466
13.8198
13.6894
13.5559
13.4201
13.2826
13.1438
13.0044
12.8649
12.7258
12.5874
12.4502
12.3146
12.181
12.0497
11.9209
11.7949
11.672
11.5524
11.4362
11.3237
11.215
11.1101
11.0092
10.9124
10.8198
10.7313
10.647
10.5669
10.4912
10.4196
10.3523
10.2892
10.2303
10.1757
10.1251
10.0787
10.0364
9.99811
9.96388
9.93365
9.90741
9.88504
9.86545
9.84176
9.80314
10.0743
2275.97
-457.697
-117.615
-14.6593
0.423635
2.78428
3.83896
4.64146
5.31929
5.93614
6.52281
7.09026
7.64129
8.17603
8.69382
9.19378
9.67506
10.1369
10.5786
10.9996
11.3994
11.7778
12.1345
12.4693
12.7821
13.0729
13.3419
13.589
13.8146
14.0188
14.202
14.3644
14.5067
14.6291
14.7322
14.8167
14.883
14.9318
14.9639
14.9799
14.9806
14.9667
14.939
14.8983
14.8455
14.7813
14.7066
14.6222
14.5289
14.4275
14.3187
14.2035
14.0825
13.9564
13.8261
13.6921
13.5551
13.4159
13.2749
13.1327
12.99
12.8473
12.7049
12.5634
12.4232
12.2846
12.1481
12.0139
11.8824
11.7538
11.6284
11.5063
11.3878
11.2731
11.1622
11.0553
10.9525
10.8538
10.7594
10.6693
10.5835
10.502
10.4248
10.352
10.2835
10.2194
10.1595
10.104
10.0526
10.0055
9.96254
9.92374
9.88905
9.85846
9.83193
9.80936
9.78965
9.76649
9.73116
9.9883
2275.97
-457.692
-117.605
-14.6457
0.441064
2.80545
3.86377
4.66982
5.35108
5.97123
6.56106
7.1315
7.68537
8.22277
8.74303
9.24526
9.72861
10.1923
10.6356
11.058
11.4591
11.8384
12.1958
12.5311
12.8442
13.135
13.4038
13.6505
13.8754
14.0787
14.2608
14.422
14.5627
14.6834
14.7847
14.867
14.9311
14.9775
15.007
15.0203
15.0182
15.0014
14.9706
14.9268
14.8708
14.8033
14.7252
14.6374
14.5406
14.4357
14.3235
14.2047
14.0801
13.9505
13.8166
13.6791
13.5387
13.396
13.2516
13.1062
12.9602
12.8142
12.6687
12.5241
12.3808
12.2394
12.1
11.9631
11.8289
11.6977
11.5698
11.4454
11.3246
11.2077
11.0947
10.9858
10.8811
10.7807
10.6845
10.5928
10.5055
10.4226
10.3441
10.2701
10.2005
10.1353
10.0745
10.018
9.96593
9.91812
9.87457
9.83526
9.80015
9.7692
9.74241
9.71964
9.69985
9.67718
9.64471
9.8886
2275.97
-457.687
-117.596
-14.634
0.455994
2.82356
3.88499
4.69405
5.37821
6.00113
6.5936
7.16655
7.72276
8.26234
8.78459
9.28864
9.77362
10.2387
10.6833
11.1067
11.5085
11.8885
12.2462
12.5817
12.8947
13.1853
13.4535
13.6995
13.9235
14.1257
14.3064
14.4661
14.6051
14.7239
14.8231
14.9032
14.9649
15.0089
15.0357
15.0462
15.0412
15.0213
14.9875
14.9405
14.8812
14.8103
14.7289
14.6376
14.5373
14.4289
14.3132
14.1908
14.0628
13.9297
13.7923
13.6513
13.5075
13.3614
13.2136
13.0649
12.9157
12.7665
12.6179
12.4702
12.3241
12.1797
12.0376
11.898
11.7612
11.6275
11.4972
11.3704
11.2474
11.1283
11.0133
10.9024
10.7959
10.6937
10.5959
10.5026
10.4138
10.3296
10.2498
10.1746
10.1039
10.0377
9.97599
9.91872
9.86586
9.81739
9.77327
9.73346
9.69794
9.66667
9.63962
9.61667
9.59682
9.57463
9.54465
9.77596
2275.97
-457.682
-117.589
-14.6242
0.468526
2.83875
3.90276
4.71431
5.40086
6.02607
6.62069
7.19565
7.75373
8.29503
8.81883
9.32426
9.81044
10.2766
10.7219
11.146
11.5483
11.9284
12.2862
12.6215
12.9341
13.2241
13.4916
13.7366
13.9594
14.1602
14.3394
14.4974
14.6345
14.7513
14.8482
14.926
14.9852
15.0265
15.0506
15.0582
15.0502
15.0272
14.9902
14.94
14.8773
14.8032
14.7183
14.6235
14.5198
14.4079
14.2886
14.1628
14.0312
13.8946
13.7538
13.6094
13.4621
13.3127
13.1617
13.0097
12.8572
12.705
12.5533
12.4027
12.2536
12.1065
11.9616
11.8193
11.68
11.5439
11.4112
11.2821
11.1569
11.0358
10.9188
10.806
10.6977
10.5938
10.4944
10.3996
10.3093
10.2237
10.1428
10.0664
9.99463
9.92746
9.86485
9.80678
9.7532
9.7041
9.65942
9.61914
9.58323
9.55164
9.52436
9.50125
9.48135
9.45961
9.43183
9.6512
2275.97
-457.679
-117.584
-14.6161
0.478765
2.85115
3.91724
4.73079
5.41925
6.04625
6.64257
7.21908
7.77858
8.32115
8.84608
9.35247
9.83944
10.3062
10.752
11.1763
11.5787
11.9587
12.3162
12.651
12.963
13.2521
13.5185
13.7623
13.9837
14.183
14.3605
14.5165
14.6516
14.7661
14.8607
14.936
14.9926
15.0311
15.0523
15.057
15.0459
15.0198
14.9796
14.9261
14.8601
14.7825
14.6942
14.596
14.4888
14.3734
14.2506
14.1213
13.9863
13.8462
13.7019
13.5542
13.4036
13.2508
13.0965
12.9413
12.7858
12.6304
12.4758
12.3223
12.1703
12.0204
11.8729
11.728
11.5862
11.4477
11.3127
11.1814
11.0541
10.9309
10.8119
10.6973
10.5872
10.4817
10.3807
10.2844
10.1928
10.1059
10.0237
9.94627
9.87348
9.80537
9.7419
9.68305
9.62878
9.57906
9.53385
9.49312
9.45683
9.42495
9.39744
9.37419
9.35425
9.33295
9.3071
9.51511
2275.98
-457.676
-117.579
-14.6098
0.486818
2.86088
3.92858
4.74367
5.43357
6.06192
6.65947
7.23711
7.7976
8.34103
8.86667
9.37363
9.86102
10.328
10.7739
11.1982
11.6003
11.9799
12.3368
12.6708
12.9818
13.2699
13.535
13.7773
13.9971
14.1946
14.3702
14.5241
14.6569
14.7691
14.8612
14.9339
14.9877
15.0234
15.0417
15.0433
15.0291
14.9998
14.9564
14.8995
14.8302
14.7492
14.6575
14.5558
14.4451
14.3262
14.2
14.0672
13.9287
13.7853
13.6376
13.4865
13.3325
13.1765
13.019
12.8607
12.7021
12.5437
12.3861
12.2298
12.0751
11.9224
11.7723
11.6249
11.4806
11.3398
11.2025
11.0691
10.9397
10.8145
10.6936
10.5773
10.4654
10.3583
10.2558
10.1581
10.0651
9.97699
9.89363
9.81507
9.74128
9.67226
9.60796
9.54836
9.49342
9.44312
9.3974
9.35623
9.31958
9.28742
9.25971
9.23631
9.21635
9.19548
9.17135
9.36852
2275.98
-457.674
-117.576
-14.6051
0.492796
2.86808
3.93695
4.75312
5.44404
6.0733
6.67166
7.25001
7.81109
8.35498
8.88095
9.38811
9.87554
10.3424
10.7881
11.2119
11.6135
11.9924
12.3484
12.6814
12.9912
13.2779
13.5415
13.7822
14.0002
14.1957
14.3691
14.5208
14.6513
14.761
14.8505
14.9204
14.9714
15.0041
15.0194
15.0179
15.0005
14.968
14.9213
14.8611
14.7884
14.704
14.6088
14.5037
14.3896
14.2672
14.1375
14.0013
13.8594
13.7126
13.5615
13.4071
13.2499
13.0907
12.9301
12.7686
12.607
12.4457
12.2852
12.126
11.9686
11.8134
11.6607
11.5108
11.3642
11.221
11.0815
10.946
10.8146
10.6874
10.5648
10.4466
10.3332
10.2244
10.1205
10.0214
9.92711
9.83774
9.75325
9.67364
9.59889
9.52898
9.46388
9.40356
9.34798
9.2971
9.25089
9.20931
9.17232
9.13989
9.11198
9.08846
9.06849
9.04802
9.02542
9.21227
2275.98
-457.673
-117.573
-14.6019
0.496811
2.87289
3.94249
4.75934
5.45085
6.08062
6.6794
7.25806
7.81935
8.36333
8.88928
9.39627
9.88342
10.3499
10.795
11.2181
11.6188
11.9967
12.3516
12.6833
12.9917
13.2767
13.5386
13.7774
13.9934
14.1868
14.358
14.5073
14.6352
14.7423
14.8291
14.8962
14.9443
14.974
14.9862
14.9816
14.961
14.9252
14.8751
14.8116
14.7354
14.6476
14.549
14.4405
14.3229
14.1971
14.064
13.9244
13.7791
13.6289
13.4746
13.3169
13.1565
12.9942
12.8304
12.666
12.5014
12.3372
12.1739
12.012
11.8519
11.694
11.5388
11.3866
11.2376
11.0922
10.9506
10.813
10.6796
10.5506
10.4261
10.3063
10.1912
10.0809
9.97556
9.8751
9.77959
9.68904
9.60345
9.52283
9.44714
9.37638
9.3105
9.24949
9.19328
9.14186
9.09518
9.0532
9.01589
8.9832
8.9551
8.93147
8.9115
8.89142
8.8702
9.04718
2275.98
-457.672
-117.572
-14.6002
0.498976
2.87544
3.94539
4.76251
5.45422
6.08412
6.68295
7.26155
7.82269
8.36641
8.89199
9.3985
9.88504
10.3508
10.795
11.2171
11.6167
11.9934
12.3469
12.677
12.9837
13.267
13.527
13.7637
13.9775
14.1686
14.3374
14.4842
14.6095
14.7138
14.7978
14.862
14.9071
14.9338
14.9428
14.935
14.9111
14.872
14.8186
14.7517
14.6722
14.581
14.479
14.367
14.246
14.1168
13.9803
13.8374
13.6887
13.5352
13.3777
13.2168
13.0532
12.8877
12.721
12.5536
12.386
12.219
12.0529
11.8884
11.7257
11.5653
11.4077
11.2531
11.1018
10.9542
10.8105
10.6709
10.5356
10.4048
10.2786
10.1571
10.0405
9.92872
9.82194
9.72017
9.62343
9.53174
9.44509
9.36348
9.2869
9.21531
9.14868
9.08699
9.03019
8.97824
8.93111
8.88875
8.85112
8.81819
8.78992
8.76619
8.74621
8.72651
8.70653
8.8741
2275.98
-457.672
-117.572
-14.5998
0.499404
2.87588
3.94579
4.76282
5.45437
6.08404
6.68256
7.26077
7.82142
8.36456
8.88945
9.39516
9.88079
10.3455
10.7886
11.2095
11.6077
11.9828
12.3347
12.6631
12.968
13.2493
13.5071
13.7417
13.9531
14.1418
14.308
14.4522
14.5747
14.6763
14.7573
14.8185
14.8605
14.8841
14.8899
14.8789
14.8518
14.8094
14.7526
14.6823
14.5994
14.5048
14.3994
14.284
14.1596
14.0271
13.8872
13.7409
13.589
13.4323
13.2715
13.1074
12.9408
12.7723
12.6026
12.4322
12.2619
12.092
11.9233
11.7561
11.5909
11.4281
11.268
11.1111
10.9577
10.808
10.6622
10.5207
10.3835
10.2509
10.123
9.99993
9.88176
9.76858
9.66045
9.55741
9.45948
9.36668
9.27901
9.19645
9.11899
9.0466
8.97926
8.91691
8.85954
8.80708
8.75951
8.71678
8.67886
8.6457
8.61726
8.59343
8.57347
8.55412
8.53526
8.69384
2275.98
-457.672
-117.572
-14.6007
0.49821
2.87434
3.94386
4.76045
5.45151
6.08062
6.67849
7.25599
7.81584
8.35809
8.882
9.38664
9.87109
10.3345
10.7762
11.1956
11.5922
11.9656
12.3157
12.6421
12.9449
13.2241
13.4797
13.7118
13.9208
14.1069
14.2705
14.4119
14.5316
14.6302
14.7083
14.7664
14.8053
14.8257
14.8284
14.8141
14.7836
14.7379
14.6778
14.6041
14.5179
14.4199
14.3111
14.1923
14.0646
13.9287
13.7855
13.636
13.4808
13.3209
13.157
12.9898
12.8201
12.6486
12.476
12.3028
12.1296
11.9571
11.7857
11.616
11.4483
11.2831
11.1207
10.9616
10.806
10.6542
10.5065
10.3631
10.2241
10.0898
9.96022
9.83558
9.71594
9.60137
9.49193
9.38766
9.28858
9.19471
9.10604
9.02257
8.94426
8.8711
8.80306
8.74009
8.68215
8.62921
8.58122
8.53814
8.49993
8.46655
8.43796
8.41403
8.39408
8.37508
8.35725
8.50723
2275.98
-457.673
-117.574
-14.6028
0.495505
2.87097
3.93977
4.7556
5.44584
6.07408
6.67101
7.2475
7.80626
8.34735
8.87
9.3733
9.85631
10.3182
10.7583
11.1759
11.5707
11.9422
12.2902
12.6146
12.9151
13.192
13.4451
13.6748
13.8812
14.0646
14.2254
14.364
14.4808
14.5764
14.6515
14.7065
14.7422
14.7594
14.7588
14.7412
14.7075
14.6584
14.595
14.5179
14.4283
14.327
14.2148
14.0927
13.9617
13.8225
13.6761
13.5233
13.3649
13.2019
13.0349
12.8647
12.692
12.5176
12.3421
12.1661
11.9902
11.8151
11.6411
11.4688
11.2987
11.1312
10.9666
10.8053
10.6476
10.4938
10.3442
10.1989
10.0582
9.92219
9.79105
9.66491
9.54384
9.42792
9.31721
9.21175
9.11156
9.01665
8.92701
8.84265
8.76353
8.68963
8.62091
8.55733
8.49886
8.44545
8.39706
8.35364
8.31515
8.28156
8.25282
8.22881
8.20888
8.19021
8.1733
8.31508
2275.98
-457.675
-117.576
-14.6059
0.491401
2.86589
3.93368
4.74845
5.43759
6.06466
6.66038
7.23558
7.79299
8.33264
8.8538
9.35551
9.83685
10.297
10.7352
11.151
11.5437
11.9131
12.2589
12.581
12.8792
13.1535
13.4042
13.6312
13.8349
14.0155
14.1735
14.3091
14.423
14.5155
14.5875
14.6393
14.6719
14.6859
14.682
14.6611
14.624
14.5717
14.5049
14.4245
14.3315
14.2269
14.1114
13.986
13.8517
13.7092
13.5596
13.4036
13.2422
13.076
12.906
12.7328
12.5572
12.3799
12.2016
12.0229
11.8444
11.6667
11.4902
11.3155
11.1431
10.9733
10.8065
10.6431
10.4834
10.3276
10.1761
10.029
9.88661
9.74899
9.61632
9.48871
9.36625
9.24903
9.13709
9.03048
8.92921
8.8333
8.74274
8.65751
8.57761
8.50298
8.43361
8.36946
8.31047
8.2566
8.20782
8.16408
8.12532
8.09153
8.06265
8.03856
8.01864
8.00029
7.98423
8.11818
2275.98
-457.676
-117.579
-14.6101
0.48601
2.85924
3.92574
4.73918
5.42695
6.0526
6.64684
7.2205
7.77631
8.31431
8.83372
9.33363
9.8131
10.2713
10.7075
11.1211
11.5117
11.8788
12.2222
12.5418
12.8375
13.1093
13.3573
13.5816
13.7825
13.9602
14.1152
14.2479
14.3587
14.4482
14.517
14.5657
14.595
14.6057
14.5986
14.5744
14.534
14.4784
14.4082
14.3246
14.2283
14.1203
14.0015
13.8729
13.7353
13.5897
13.4369
13.2778
13.1133
12.9441
12.7711
12.595
12.4166
12.2365
12.0555
11.8741
11.693
11.5128
11.3339
11.1568
10.9821
10.8101
10.6411
10.4757
10.314
10.1564
10.0031
9.85425
9.71017
9.57098
9.43681
9.30779
9.18399
9.06551
8.95238
8.84465
8.74234
8.64546
8.554
8.46795
8.38728
8.31196
8.24196
8.17724
8.11776
8.06346
8.0143
7.97024
7.93123
7.89724
7.86823
7.84407
7.82417
7.80611
7.79084
7.9173
2275.97
-457.679
-117.583
-14.6152
0.479439
2.85115
3.91611
4.72797
5.41412
6.03811
6.63064
7.20254
7.75653
8.29264
8.81012
9.30802
9.78542
10.2415
10.6755
11.0868
11.475
11.8397
12.1807
12.4977
12.7908
13.0598
13.3051
13.5265
13.7245
13.8994
14.0514
14.181
14.2887
14.375
14.4406
14.4861
14.5123
14.5197
14.5093
14.4818
14.4382
14.3792
14.3058
14.2188
14.1193
14.008
13.886
13.7542
13.6134
13.4647
13.3088
13.1466
12.9791
12.8069
12.631
12.4521
12.2709
12.0881
11.9044
11.7204
11.5368
11.3541
11.1729
10.9935
10.8165
10.6424
10.4714
10.3039
10.1403
9.98088
9.82579
9.67532
9.52964
9.38893
9.25331
9.12291
8.99782
8.87812
8.76384
8.65503
8.55172
8.4539
8.36157
8.27472
8.19331
8.11733
8.04672
7.98146
7.92149
7.86677
7.81725
7.77289
7.73364
7.69947
7.67032
7.64609
7.62621
7.60844
7.59387
7.71321
2275.97
-457.681
-117.587
-14.6211
0.471795
2.84176
3.90494
4.715
5.39931
6.02142
6.61202
7.18196
7.73393
8.26797
8.78332
9.27903
9.75418
10.2079
10.6396
11.0485
11.4342
11.7963
12.1347
12.449
12.7393
13.0056
13.248
13.4666
13.6616
13.8334
13.9824
14.1089
14.2135
14.2967
14.3591
14.4014
14.4243
14.4285
14.4148
14.3841
14.3371
14.2749
14.1982
14.108
14.0052
13.8907
13.7656
13.6306
13.4867
13.3348
13.1759
13.0108
12.8403
12.6652
12.4865
12.3047
12.1208
11.9354
11.7491
11.5626
11.3766
11.1915
11.0079
10.8263
10.6472
10.4709
10.2979
10.1286
9.96312
9.80187
9.64509
9.49299
9.34577
9.20358
9.06657
8.93484
8.8085
8.68761
8.57223
8.46238
8.35809
8.25937
8.1662
8.07857
7.99646
7.91983
7.84864
7.78285
7.72242
7.66729
7.61743
7.57277
7.53329
7.49894
7.46966
7.44536
7.42551
7.408
7.39409
7.50662
2275.97
-457.684
-117.592
-14.6278
0.46318
2.83119
3.89239
4.70044
5.3827
6.00274
6.59123
7.15901
7.70878
8.24057
8.75363
9.24699
9.71975
10.171
10.6002
11.0065
11.3896
11.7491
12.0847
12.3963
12.6838
12.9472
13.1866
13.4023
13.5943
13.7631
13.9089
14.0323
14.1338
14.2138
14.273
14.3121
14.3317
14.3327
14.3157
14.2818
14.2316
14.1661
14.0862
13.9927
13.8868
13.7691
13.6408
13.5027
13.3558
13.2009
13.039
12.8709
12.6975
12.5197
12.3381
12.1537
11.9671
11.7791
11.5903
11.4014
11.2129
11.0255
10.8397
10.656
10.4748
10.2965
10.1216
9.95031
9.78306
9.6201
9.46168
9.30801
9.15928
9.01567
8.8773
8.7443
8.61675
8.49472
8.37826
8.26741
8.16218
8.06258
7.96861
7.88023
7.79744
7.72018
7.64843
7.58214
7.52125
7.46574
7.41554
7.3706
7.33089
7.29636
7.26697
7.24261
7.22277
7.20552
7.1922
7.29825
2275.97
-457.687
-117.597
-14.6351
0.453695
2.81956
3.87859
4.68445
5.36449
5.98228
6.56848
7.13394
7.68136
8.21075
8.72136
9.21224
9.68246
10.1312
10.5577
10.9613
11.3417
11.6984
12.0312
12.34
12.6246
12.8851
13.1215
13.3341
13.5231
13.6888
13.8315
13.9518
14.05
14.1269
14.1829
14.2187
14.2352
14.2329
14.2127
14.1755
14.1221
14.0534
13.9703
13.8738
13.7646
13.6439
13.5125
13.3714
13.2214
13.0636
12.8988
12.7278
12.5516
12.371
12.1868
11.9997
11.8105
11.62
11.4287
11.2374
11.0467
10.857
10.669
10.4832
10.3
10.1197
9.94292
9.76986
9.60088
9.43626
9.27624
9.12105
8.97088
8.82589
8.68622
8.55198
8.42326
8.30013
8.18263
8.07081
7.96468
7.86424
7.76949
7.68039
7.59694
7.51908
7.44678
7.38
7.31869
7.26279
7.21227
7.16706
7.12714
7.09244
7.06293
7.0385
7.01868
7.00167
6.98889
7.08878
2275.97
-457.691
-117.603
-14.6431
0.443436
2.80698
3.86369
4.66719
5.34486
5.96024
6.54401
7.107
7.65192
8.17878
8.68682
9.17509
9.64267
10.0887
10.5125
10.9134
11.2909
11.6448
11.9747
12.2805
12.5622
12.8197
13.0531
13.2626
13.4485
13.6111
13.7507
13.8678
13.9629
14.0365
14.0894
14.122
14.1352
14.1298
14.1064
14.066
14.0095
13.9376
13.8514
13.7517
13.6395
13.5157
13.3813
13.2372
13.0843
12.9235
12.7559
12.5821
12.4032
12.2199
12.033
11.8434
11.6517
11.4587
11.2651
11.0715
10.8785
10.6866
10.4966
10.3087
10.1235
9.94134
9.76271
9.5879
9.41725
9.25101
9.08946
8.93281
8.78124
8.63492
8.49399
8.35855
8.22871
8.10451
7.98602
7.87327
7.76626
7.66501
7.5695
7.47971
7.39562
7.31718
7.24436
7.17711
7.11538
7.05912
7.00828
6.96282
6.92268
6.88782
6.85819
6.83371
6.8139
6.79711
6.78483
6.87885
2275.97
-457.694
-117.609
-14.6516
0.432499
2.79358
3.84781
4.64882
5.32397
5.93681
6.51802
7.07843
7.62072
8.14493
8.65029
9.13585
9.60068
10.0439
10.4649
10.8629
11.2376
11.5886
11.9155
12.2184
12.497
12.7515
12.9818
13.1883
13.3711
13.5305
13.667
13.7809
13.8728
13.9433
13.993
14.0225
14.0325
14.0239
13.9974
13.9538
13.8941
13.8192
13.7298
13.6271
13.5119
13.3851
13.2477
13.1007
12.9449
12.7814
12.6109
12.4345
12.2528
12.0669
11.8775
11.6854
11.4912
11.2959
11.1
10.9041
10.7089
10.515
10.3229
10.133
9.94591
9.76197
9.58157
9.40508
9.2328
9.06501
8.90198
8.74391
8.59099
8.44339
8.30125
8.16466
8.03373
7.90851
7.78906
7.6754
7.56755
7.46552
7.36929
7.27883
7.19412
7.11513
7.0418
6.97409
6.91196
6.85535
6.80421
6.75849
6.71815
6.68313
6.65339
6.62884
6.60905
6.59247
6.58064
6.66908
2275.97
-457.698
-117.615
-14.6605
0.420971
2.77947
3.8311
4.62949
5.30201
5.91219
6.49073
7.04843
7.588
8.10947
8.61205
9.09481
9.5568
9.9972
10.4153
10.8104
11.1821
11.5301
11.8541
12.1539
12.4295
12.6809
12.9082
13.1115
13.2912
13.4475
13.5809
13.6917
13.7804
13.8478
13.8943
13.9206
13.9275
13.9157
13.8861
13.8395
13.7767
13.6987
13.6063
13.5006
13.3824
13.2527
13.1124
12.9626
12.804
12.6377
12.4645
12.2854
12.1012
11.9127
11.7208
11.5263
11.3298
11.1321
10.934
10.736
10.5387
10.3427
10.1486
9.95686
9.76792
9.58221
9.40012
9.22199
9.04815
8.87887
8.7144
8.55497
8.40075
8.25192
8.1086
7.97091
7.83893
7.71272
7.59234
7.47782
7.36916
7.26637
7.16944
7.07834
6.99304
6.91351
6.83969
6.77155
6.70903
6.65208
6.60065
6.55468
6.51414
6.47897
6.44912
6.42451
6.40473
6.38835
6.37692
6.46006
2275.97
-457.702
-117.622
-14.6699
0.408939
2.76474
3.81366
4.60933
5.27912
5.88655
6.46232
7.01723
7.554
8.07263
8.57236
9.05224
9.51134
9.94882
10.3639
10.7561
11.1249
11.4699
11.7908
12.0876
12.3601
12.6084
12.8326
13.0329
13.2094
13.3626
13.4928
13.6005
13.6861
13.7503
13.7937
13.8169
13.8207
13.8059
13.7732
13.7235
13.6577
13.5767
13.4814
13.3727
13.2516
13.1191
12.976
12.8233
12.6621
12.4931
12.3173
12.1356
11.9489
11.7579
11.5636
11.3667
11.1679
10.9681
10.7677
10.5676
10.3683
10.1704
9.97437
9.78078
9.59007
9.40266
9.21892
9.03923
8.86387
8.69315
8.52731
8.36656
8.21109
8.06107
7.91662
7.77786
7.64487
7.51772
7.39645
7.28109
7.17165
7.06814
6.97053
6.87881
6.79294
6.71289
6.63861
6.57004
6.50715
6.44987
6.39815
6.35195
6.31121
6.27589
6.24594
6.22127
6.2015
6.18529
6.17425
6.25235
2275.97
-457.706
-117.629
-14.6795
0.396485
2.7495
3.79562
4.58849
5.25546
5.86006
6.43298
6.98503
7.51892
8.03466
8.53148
9.00843
9.46458
9.89909
10.3112
10.7004
11.0661
11.4081
11.726
12.0197
12.2892
12.5344
12.7555
12.9527
13.1261
13.2762
13.4033
13.5079
13.5904
13.6515
13.6918
13.712
13.7127
13.6948
13.6592
13.6065
13.5377
13.4538
13.3556
13.244
13.1201
12.9847
12.8389
12.6836
12.5196
12.348
12.1697
11.9855
11.7963
11.603
11.4064
11.2072
11.0062
10.8042
10.6018
10.3996
10.1984
9.99853
9.80068
9.60532
9.4129
9.22385
9.03854
8.85732
8.68052
8.50841
8.34124
8.17923
8.02256
7.87139
7.72586
7.58607
7.45211
7.32405
7.20192
7.08575
6.97557
6.87135
6.7731
6.68078
6.59437
6.51381
6.43907
6.3701
6.30685
6.24925
6.19726
6.15083
6.1099
6.07444
6.04439
6.01965
5.99988
5.98385
5.97314
6.04647
2275.96
-457.71
-117.636
-14.6895
0.383686
2.73384
3.7771
4.56709
5.23117
5.83288
6.40289
6.95202
7.48298
7.99577
8.48963
8.96362
9.41678
9.84829
10.2574
10.6436
11.0063
11.3452
11.66
11.9507
12.2171
12.4592
12.6772
12.8713
13.0417
13.1887
13.3127
13.4142
13.4937
13.5518
13.589
13.6062
13.6039
13.5831
13.5444
13.4888
13.4172
13.3304
13.2293
13.115
12.9883
12.8502
12.7017
12.5438
12.3773
12.2031
12.0223
11.8357
11.6442
11.4485
11.2496
11.0483
10.8451
10.641
10.4366
10.2325
10.0293
9.82768
9.62807
9.431
9.23694
9.0463
8.85947
8.6768
8.4986
8.32516
8.15671
7.99348
7.83565
7.68339
7.53681
7.39604
7.26115
7.1322
7.00925
6.89231
6.7814
6.67652
6.57764
6.48475
6.39781
6.31677
6.24159
6.17223
6.10863
6.05072
5.99847
5.95182
5.91071
5.8751
5.84494
5.82015
5.80038
5.7845
5.77409
5.8429
2275.96
-457.715
-117.643
-14.6996
0.370616
2.71786
3.75819
4.54526
5.2064
5.80516
6.37222
6.91839
7.44638
7.95619
8.44706
8.91804
9.3682
9.79669
10.2028
10.5859
10.9456
11.2814
11.5932
11.8808
12.1441
12.3832
12.5982
12.7892
12.9565
13.1005
13.2215
13.32
13.3964
13.4515
13.4858
13.5
13.4948
13.471
13.4295
13.371
13.2965
13.2069
13.1031
12.9861
12.8567
12.716
12.5649
12.4044
12.2354
12.0588
11.8756
11.6866
11.4928
11.2949
11.0939
10.8904
10.6852
10.4791
10.2727
10.0667
9.86173
9.65831
9.457
9.2583
9.06265
8.87049
8.6822
8.49813
8.31859
8.14386
7.97419
7.80979
7.65086
7.49753
7.34996
7.20823
7.07245
6.94266
6.81892
6.70124
6.58963
6.4841
6.38463
6.29118
6.20373
6.12223
6.04663
5.97689
5.91295
5.85475
5.80224
5.75537
5.71409
5.67834
5.64808
5.62323
5.60346
5.58771
5.57758
5.6421
2275.96
-457.719
-117.65
-14.71
0.357345
2.70163
3.739
4.5231
5.18127
5.77705
6.34113
6.88431
7.4093
7.9161
8.40397
8.87193
9.31907
9.74453
10.1476
10.5277
10.8843
11.2171
11.5259
11.8104
12.0707
12.3068
12.5187
12.7067
12.871
13.012
13.13
13.2255
13.299
13.3511
13.3825
13.3937
13.3857
13.359
13.3147
13.2534
13.1762
13.0839
12.9774
12.8577
12.7257
12.5825
12.4289
12.2659
12.0945
11.9155
11.73
11.5388
11.3427
11.1427
10.9395
10.734
10.5268
10.3188
10.1105
9.90274
9.696
9.49089
9.28794
9.08765
8.89049
8.69687
8.50718
8.32176
8.14093
7.96497
7.79413
7.62861
7.4686
7.31427
7.16573
7.0231
6.88645
6.75585
6.63135
6.51296
6.40069
6.29454
6.19449
6.10051
6.01257
5.93062
5.85462
5.78451
5.72025
5.66176
5.60901
5.56192
5.52047
5.48458
5.45422
5.42931
5.40953
5.39392
5.38403
5.44449
2275.96
-457.724
-117.658
-14.7204
0.343937
2.68523
3.71962
4.50072
5.1559
5.74868
6.30976
6.84993
7.37191
7.87571
8.36056
8.8255
9.26962
9.69206
10.0921
10.4692
10.8228
11.1526
11.4583
11.7399
11.9971
12.2302
12.4391
12.6241
12.7855
12.9235
13.0385
13.1311
13.2017
13.2509
13.2794
13.2879
13.277
13.2476
13.2005
13.1365
13.0566
12.9616
12.8526
12.7303
12.5958
12.4501
12.2941
12.1287
11.9549
11.7737
11.5859
11.3925
11.1943
10.9922
10.787
10.5795
10.3705
10.1606
9.95052
9.74098
9.53255
9.3258
9.12129
8.91949
8.72087
8.52585
8.33481
8.1481
7.96604
7.7889
7.61692
7.45033
7.2893
7.13399
6.98453
6.84103
6.70356
6.57219
6.44695
6.32788
6.21497
6.10822
6.00762
5.91313
5.82472
5.74234
5.66595
5.59549
5.53091
5.47215
5.41916
5.37187
5.33024
5.29422
5.26377
5.23879
5.219
5.20351
5.19383
5.25046
2275.96
-457.728
-117.665
-14.7309
0.330453
2.66875
3.70013
4.47823
5.1304
5.72018
6.27825
6.81542
7.33439
7.83517
8.31701
8.77895
9.22005
9.63949
10.0365
10.4106
10.7612
11.088
11.3908
11.6693
11.9236
12.1537
12.3597
12.5418
12.7002
12.8353
12.9475
13.0372
13.105
13.1514
13.1771
13.1827
13.1691
13.137
13.0872
13.0207
12.9381
12.8406
12.729
12.6042
12.4673
12.3192
12.1608
11.9931
11.8171
11.6337
11.4438
11.2482
11.048
10.8439
10.6368
10.4274
10.2165
10.0048
9.79302
9.5818
9.37175
9.16345
8.95743
8.75418
8.55416
8.3578
8.16547
7.97753
7.79428
7.61601
7.44295
7.27533
7.11332
6.95708
6.80674
6.6624
6.52414
6.39203
6.26609
6.14636
6.03284
5.92552
5.82439
5.72941
5.64055
5.55776
5.48099
5.4102
5.34531
5.28628
5.23305
5.18557
5.14378
5.10763
5.07707
5.05203
5.03223
5.01684
5.00736
5.06037
2275.96
-457.733
-117.673
-14.7414
0.31695
2.65224
3.68062
4.45572
5.10489
5.69167
6.24673
6.7809
7.29687
7.79466
8.2735
8.73245
9.17057
9.58702
9.98109
10.3522
10.6998
11.0237
11.3235
11.5991
11.8505
12.0777
12.2808
12.46
12.6155
12.7478
12.8571
12.944
13.009
13.0527
13.0757
13.0787
13.0624
13.0277
12.9753
12.9061
12.8211
12.7211
12.607
12.4799
12.3406
12.1901
12.0295
11.8596
11.6814
11.4959
11.3039
11.1063
10.9041
10.6981
10.4891
10.2779
10.0652
9.85182
9.63839
9.42557
9.21398
9.00418
8.79671
8.59207
8.39071
8.19307
7.99951
7.81038
7.626
7.44665
7.27256
7.10395
6.941
6.78388
6.63269
6.48755
6.34854
6.21571
6.0891
5.96874
5.85464
5.74677
5.64513
5.54968
5.46038
5.3772
5.30007
5.22895
5.16377
5.10448
5.05103
5.00335
4.9614
4.92512
4.89447
4.86936
4.84955
4.83425
4.82494
4.87453
2275.96
-457.737
-117.68
-14.7518
0.303479
2.63578
3.66116
4.43327
5.07945
5.66324
6.21533
6.74651
7.25951
7.75432
8.2302
8.68618
9.12134
9.53484
9.92597
10.2941
10.6388
10.9598
11.2567
11.5294
11.7779
12.0023
12.2025
12.3789
12.5317
12.6611
12.7677
12.8519
12.9142
12.9552
12.9755
12.9759
12.9571
12.9198
12.8649
12.7933
12.7058
12.6034
12.487
12.3575
12.216
12.0633
11.9004
11.7284
11.5481
11.3605
11.1666
10.9671
10.763
10.5551
10.3443
10.1314
9.917
9.70197
9.48696
9.27261
9.05953
8.8483
8.63945
8.43348
8.23085
8.03197
7.83723
7.64698
7.46152
7.28113
7.10605
6.9365
6.77266
6.61468
6.46269
6.31678
6.17705
6.04354
5.91629
5.79533
5.68066
5.57227
5.47014
5.37424
5.28453
5.20096
5.12348
5.05205
4.98659
4.92705
4.87338
4.82552
4.78341
4.747
4.71625
4.69108
4.67124
4.65603
4.64687
4.69323
2275.95
-457.742
-117.688
-14.7623
0.29009
2.61941
3.64183
4.41097
5.05418
5.63501
6.18414
6.71237
7.22242
7.7143
8.18724
8.64029
9.07254
9.48313
9.87136
10.2366
10.5785
10.8966
11.1906
11.4605
11.7062
11.9278
12.1253
12.2989
12.4489
12.5757
12.6796
12.7611
12.8208
12.8592
12.877
12.8748
12.8534
12.8137
12.7564
12.6824
12.5925
12.4878
12.3691
12.2374
12.0937
11.9389
11.7739
11.5999
11.4176
11.228
11.0321
10.8308
10.6249
10.4152
10.2027
9.9881
9.77213
9.55554
9.33901
9.12319
8.9087
8.6961
8.48593
8.2787
8.07484
7.87479
7.67893
7.48759
7.3011
7.11972
6.94371
6.77326
6.60856
6.44977
6.297
6.15037
6.00994
5.87578
5.74792
5.62639
5.51118
5.40228
5.29969
5.20335
5.11324
5.02931
4.9515
4.87976
4.81403
4.75426
4.70037
4.65233
4.61006
4.57353
4.54269
4.51745
4.49759
4.48245
4.47342
4.51674
2275.95
-457.746
-117.695
-14.7726
0.276827
2.60321
3.62268
4.38889
5.02917
5.60707
6.15327
6.67859
7.18573
7.67471
8.14476
8.59494
9.02431
9.43205
9.81743
10.1799
10.5189
10.8342
11.1255
11.3926
11.6356
11.8544
12.0491
12.2201
12.3675
12.4916
12.5929
12.6719
12.729
12.7649
12.7802
12.7755
12.7518
12.7096
12.65
12.5737
12.4816
12.3746
12.2537
12.1199
11.9741
11.8172
11.6503
11.4742
11.29
11.0986
10.9008
10.6977
10.4901
10.2788
10.0646
9.84838
9.63087
9.41278
9.1948
8.97759
8.76174
8.54784
8.33642
8.12797
7.92295
7.72178
7.52484
7.33248
7.145
6.96269
6.78577
6.61446
6.44895
6.28938
6.13588
5.98855
5.84747
5.71269
5.58424
5.46216
5.34643
5.23706
5.13401
5.03727
4.94677
4.86249
4.78436
4.71233
4.64634
4.58633
4.53224
4.48402
4.4416
4.40495
4.37401
4.3487
4.32882
4.31374
4.30482
4.34529
2275.95
-457.75
-117.702
-14.7828
0.263729
2.5872
3.60378
4.36708
5.00448
5.5795
6.12282
6.64527
7.14955
7.63568
8.10289
8.55024
8.9768
9.38173
9.76433
10.124
10.4603
10.7728
11.0614
11.3258
11.5661
11.7822
11.9744
12.1427
12.2875
12.4091
12.5079
12.5844
12.639
12.6725
12.6854
12.6784
12.6523
12.6079
12.5459
12.4674
12.3731
12.264
12.1411
12.0052
11.8573
11.6985
11.5296
11.3517
11.1656
10.9724
10.7729
10.5681
10.3588
10.1459
9.93016
9.71242
9.49344
9.27393
9.05457
8.83602
8.61889
8.40374
8.19113
7.98152
7.7754
7.57317
7.37521
7.18186
6.99345
6.81023
6.63246
6.46034
6.29405
6.13374
5.97954
5.83155
5.68984
5.55446
5.42546
5.30285
5.18663
5.0768
4.97333
4.87618
4.78532
4.7007
4.62226
4.54995
4.48371
4.42348
4.36919
4.32079
4.27824
4.24146
4.21043
4.18505
4.16514
4.15012
4.14129
4.17907
2275.95
-457.755
-117.709
-14.7928
0.250834
2.57145
3.58517
4.34563
4.98018
5.55236
6.09287
6.6125
7.11397
7.5973
8.06173
8.50631
8.93012
9.33231
9.71218
10.0691
10.4027
10.7126
10.9985
11.2603
11.498
11.7116
11.9012
12.067
12.2093
12.3284
12.4248
12.4988
12.5511
12.5822
12.5928
12.5835
12.5552
12.5085
12.4445
12.3638
12.2674
12.1563
12.0313
11.8934
11.7437
11.5829
11.4122
11.2325
11.0447
10.8497
10.6486
10.4422
10.2313
10.0168
9.79961
9.58043
9.36005
9.13918
8.91851
8.69869
8.48034
8.26401
8.05026
7.83956
7.63238
7.42914
7.2302
7.03593
6.84663
6.66256
6.48397
6.31108
6.14405
5.98304
5.82817
5.67954
5.53723
5.40129
5.27176
5.14865
5.03196
4.92169
4.81781
4.72028
4.62907
4.54413
4.4654
4.39282
4.32633
4.26588
4.2114
4.16284
4.12014
4.08325
4.05212
4.02667
4.00673
3.99176
3.98301
4.01826
2275.95
-457.759
-117.716
-14.8026
0.238174
2.55599
3.56691
4.32457
4.95634
5.52575
6.06348
6.58036
7.07909
7.55969
8.0214
8.46327
8.88439
9.28391
9.66113
10.0155
10.3464
10.6537
10.9371
11.1963
11.4315
11.6426
11.8297
11.9931
12.1329
12.2497
12.3437
12.4154
12.4654
12.4942
12.5026
12.4911
12.4606
12.4119
12.3457
12.263
12.1646
12.0515
11.9246
11.7849
11.6333
11.4707
11.2983
11.1168
10.9273
10.7308
10.5281
10.3201
10.1077
9.89176
9.67314
9.45259
9.23087
9.00872
8.7868
8.56578
8.34626
8.12882
7.91398
7.70225
7.49407
7.28986
7.09001
6.89485
6.7047
6.51983
6.34047
6.16683
5.9991
5.83742
5.68192
5.53269
5.38981
5.25334
5.12329
4.99971
4.88258
4.77189
4.66761
4.56973
4.47818
4.39293
4.31391
4.24107
4.17435
4.11369
4.05903
4.0103
3.96747
3.93046
3.89923
3.87372
3.85374
3.83881
3.83013
3.863
2275.95
-457.763
-117.723
-14.8123
0.22578
2.54085
3.54903
4.30396
4.93301
5.4997
6.03473
6.54892
7.04497
7.52291
7.98197
8.42121
8.83971
9.23663
9.61127
9.96304
10.2915
10.5962
10.8771
11.1339
11.3666
11.5753
11.76
11.921
12.0586
12.173
12.2647
12.3342
12.382
12.4087
12.4149
12.4013
12.3688
12.318
12.2499
12.1652
12.0649
11.95
11.8212
11.6797
11.5263
11.3621
11.1879
11.0048
10.8138
10.6157
10.4114
10.202
9.98816
9.77087
9.5509
9.32904
9.10607
8.88269
8.6596
8.43744
8.21682
7.99831
7.78245
7.56973
7.3606
7.15549
6.95476
6.75877
6.56782
6.38217
6.20208
6.02775
5.85935
5.69704
5.54094
5.39114
5.24772
5.11073
4.9802
4.85616
4.7386
4.62752
4.52287
4.42464
4.33277
4.24722
4.16793
4.09484
4.0279
3.96704
3.9122
3.86332
3.82034
3.78322
3.75191
3.72633
3.70631
3.69141
3.68278
3.71343
2275.95
-457.767
-117.73
-14.8217
0.213677
2.52607
3.53158
4.28385
4.91023
5.47429
6.00668
6.51825
7.01169
7.48704
7.94352
8.38021
8.79617
9.19057
9.56271
9.912
10.238
10.5403
10.8187
11.0732
11.3035
11.5099
11.6923
11.851
11.9864
12.0986
12.1881
12.2555
12.3011
12.3257
12.3299
12.3144
12.2798
12.2271
12.1571
12.0706
11.9685
11.8517
11.7212
11.578
11.4229
11.2571
11.0813
10.8967
10.7041
10.5045
10.2989
10.088
9.87287
9.65426
9.43302
9.20994
8.98577
8.76123
8.53702
8.31378
8.09212
7.87261
7.65579
7.44213
7.23211
7.02613
6.82458
6.6278
6.43609
6.24972
6.06893
5.89394
5.72491
5.562
5.40532
5.25498
5.11105
4.97357
4.84259
4.71812
4.60016
4.48869
4.38369
4.28512
4.19295
4.10712
4.02757
3.95424
3.88708
3.82603
3.77101
3.72198
3.67887
3.64164
3.61024
3.58459
3.56453
3.54965
3.54107
3.56963
2275.94
-457.771
-117.737
-14.8309
0.201889
2.51167
3.51458
4.26426
4.88806
5.44954
5.97938
6.48841
6.97932
7.45215
7.90614
8.34034
8.75384
9.14581
9.51552
9.86242
10.186
10.486
10.7621
11.0143
11.2423
11.4464
11.6267
11.7832
11.9164
12.0265
12.1139
12.1792
12.2229
12.2455
12.2477
12.2302
12.1938
12.1393
12.0674
11.9792
11.8753
11.7569
11.6247
11.4799
11.3232
11.1558
10.9786
10.7925
10.5985
10.3975
10.1905
9.97834
9.76191
9.54206
9.31962
9.09537
8.87007
8.64445
8.41919
8.19493
7.97229
7.75183
7.53409
7.31956
7.10869
6.9019
6.69957
6.50204
6.30961
6.12255
5.94111
5.76549
5.59587
5.43239
5.27517
5.12432
4.9799
4.84196
4.71055
4.58566
4.46732
4.35549
4.25015
4.15127
4.0588
3.9727
3.8929
3.81935
3.75198
3.69074
3.63556
3.58638
3.54315
3.50581
3.47431
3.44859
3.4285
3.41364
3.40509
3.4317
2275.94
-457.775
-117.743
-14.8398
0.190436
2.49768
3.49807
4.24523
4.86653
5.42552
5.95288
6.45944
6.9479
7.41829
7.86987
8.30167
8.7128
9.10241
9.46979
9.81438
10.1357
10.4334
10.7073
10.9572
11.1831
11.3851
11.5632
11.7176
11.8487
11.9568
12.0423
12.1056
12.1473
12.1681
12.1684
12.1491
12.1109
12.0546
11.9811
11.8911
11.7856
11.6656
11.5319
11.3855
11.2273
11.0585
10.8798
10.6923
10.497
10.2947
10.0864
9.873
9.65537
9.43435
9.21078
8.98544
8.75908
8.53243
8.30617
8.08096
7.85739
7.63604
7.41744
7.20208
6.99042
6.78286
6.5798
6.38156
6.18845
6.00075
5.81869
5.64248
5.47229
5.30828
5.15055
4.99921
4.85433
4.71596
4.58413
4.45886
4.34015
4.22798
4.12232
4.02314
3.9304
3.84403
3.764
3.69023
3.62266
3.56124
3.5059
3.45658
3.41322
3.37577
3.34419
3.3184
3.29826
3.28342
3.27489
3.29968
2275.94
-457.779
-117.749
-14.8484
0.179335
2.48413
3.48207
4.2268
4.84568
5.40225
5.92721
6.43139
6.91748
7.38553
7.83477
8.26426
8.6731
9.06044
9.42558
9.76794
10.0871
10.3826
10.6544
10.9022
11.126
11.3259
11.5019
11.6544
11.7835
11.8897
11.9733
12.0347
12.0746
12.0935
12.0921
12.0711
12.0312
11.9733
11.8981
11.8065
11.6995
11.5779
11.4427
11.2948
11.1353
10.9651
10.7851
10.5963
10.3997
10.1962
9.98666
9.77209
9.55333
9.33121
9.10658
8.8802
8.65285
8.42524
8.19805
7.97193
7.7475
7.52531
7.3059
7.08976
6.87735
6.66908
6.46532
6.26642
6.07268
5.88437
5.70173
5.52496
5.35424
5.18972
5.03151
4.87972
4.7344
4.59562
4.4634
4.33776
4.2187
4.10621
4.00024
3.90078
3.80777
3.72116
3.6409
3.56692
3.49916
3.43757
3.38207
3.33261
3.28914
3.25159
3.21992
3.19406
3.17388
3.15904
3.15053
3.17361
2275.94
-457.782
-117.755
-14.8568
0.168602
2.47103
3.4666
4.20898
4.82552
5.37976
5.90241
6.40429
6.8881
7.35388
7.80088
8.22816
8.63479
9.01995
9.38293
9.72316
10.0402
10.3337
10.6033
10.8491
11.0709
11.2689
11.443
11.5936
11.7208
11.8251
11.9069
11.9666
12.0047
12.0219
12.0189
11.9962
11.9547
11.8952
11.8185
11.7254
11.6169
11.4939
11.3573
11.2081
11.0472
10.8757
10.6944
10.5044
10.3066
10.1019
9.89132
9.67566
9.45584
9.2327
9.00707
8.77973
8.55144
8.32293
8.09487
7.86791
7.64265
7.41968
7.19952
6.98265
6.76954
6.56059
6.35619
6.15666
5.96233
5.77345
5.59026
5.41297
5.24175
5.07675
4.91809
4.76586
4.62014
4.48097
4.34838
4.2224
4.10301
3.9902
3.88395
3.78422
3.69096
3.60411
3.52363
3.44946
3.38152
3.31976
3.26411
3.21452
3.17093
3.13328
3.10152
3.0756
3.05538
3.04054
3.03204
3.05353
2275.94
-457.786
-117.761
-14.8649
0.15825
2.45839
3.45169
4.1918
4.80608
5.35809
5.87851
6.37817
6.85979
7.3234
7.76825
8.19339
8.59791
8.98098
9.34191
9.6801
9.9951
10.2866
10.5543
10.7982
11.0181
11.2141
11.3864
11.5352
11.6607
11.7632
11.8433
11.9013
11.9378
11.9534
11.9487
11.9245
11.8815
11.8205
11.7423
11.6479
11.538
11.4136
11.2757
11.1252
10.9631
10.7904
10.608
10.4168
10.2179
10.0121
9.80045
9.58376
9.36295
9.13885
8.91229
8.68405
8.45489
8.22553
7.99665
7.76891
7.5429
7.31919
7.09832
6.88077
6.667
6.45742
6.25241
6.05231
5.85741
5.668
5.4843
5.30652
5.13483
4.96939
4.8103
4.65767
4.51155
4.37202
4.23909
4.11277
3.99308
3.87998
3.77345
3.67346
3.57996
3.4929
3.41221
3.33785
3.26973
3.20782
3.15203
3.10231
3.0586
3.02086
2.98902
2.96303
2.94276
2.92792
2.91942
2.93944
2275.94
-457.789
-117.766
-14.8726
0.148288
2.44623
3.43734
4.17527
4.78738
5.33724
5.85552
6.35307
6.83259
7.29411
7.73689
8.16
8.5625
8.94358
9.30253
9.63877
9.95186
10.2415
10.5073
10.7493
10.9675
11.1617
11.3323
11.4793
11.6031
11.704
11.7825
11.8389
11.8738
11.8879
11.8817
11.8561
11.8117
11.7493
11.6697
11.5739
11.4628
11.3371
11.198
11.0463
10.8831
10.7092
10.5257
10.3334
10.1335
9.9267
9.71405
9.49642
9.27468
9.04969
8.82226
8.59319
8.36322
8.13307
7.90344
7.67496
7.44824
7.22385
7.00232
6.78414
6.56976
6.35959
6.15402
5.95337
5.75795
5.56804
5.38386
5.20562
5.0335
4.86763
4.70815
4.55513
4.40866
4.26878
4.13552
4.0089
3.88891
3.77554
3.66875
3.56852
3.47479
3.38752
3.30664
3.23209
3.16381
3.10174
3.04582
2.99598
2.95216
2.91432
2.8824
2.85635
2.83603
2.82119
2.81269
2.83133
2275.94
-457.792
-117.772
-14.8801
0.138727
2.43456
3.42357
4.15941
4.76945
5.31724
5.83348
6.32899
6.8065
7.26604
7.70685
8.128
8.52858
8.90776
9.26483
9.59923
9.91049
10.1983
10.4624
10.7027
10.9191
11.1117
11.2806
11.426
11.5482
11.6475
11.7244
11.7794
11.8128
11.8255
11.818
11.7909
11.7452
11.6815
11.6007
11.5036
11.3913
11.2645
11.1242
10.9714
10.8071
10.6321
10.4476
10.2544
10.0534
9.84572
9.63216
9.41365
9.19106
8.96524
8.737
8.50715
8.27643
8.04556
7.81522
7.58606
7.35869
7.13366
6.91152
6.69275
6.47781
6.2671
6.06099
5.85984
5.66394
5.47356
5.28894
5.11027
4.93774
4.77148
4.61162
4.45825
4.31144
4.17124
4.03767
3.91076
3.7905
3.67687
3.56984
3.46938
3.37544
3.28796
3.20689
3.13217
3.06374
3.00153
2.94547
2.89551
2.85159
2.81366
2.78166
2.75554
2.73518
2.72033
2.71183
2.72918
2275.94
-457.795
-117.777
-14.8872
0.129573
2.42338
3.41038
4.14422
4.75228
5.2981
5.81238
6.30596
6.78155
7.23919
7.67813
8.09742
8.49617
8.87355
9.22884
9.56148
9.87102
10.1571
10.4195
10.6582
10.873
11.064
11.2313
11.3752
11.4959
11.5938
11.6693
11.7228
11.7549
11.7662
11.7574
11.7291
11.6821
11.6172
11.5352
11.437
11.3235
11.1956
11.0543
10.9005
10.7351
10.5592
10.3737
10.1796
9.97775
9.76918
9.55478
9.33545
9.11207
8.88549
8.65652
8.42595
8.19453
7.96299
7.732
7.50221
7.27423
7.04863
6.82592
6.60661
6.39114
6.17992
5.97333
5.77171
5.57536
5.38455
5.19951
5.02045
4.84753
4.68091
4.5207
4.367
4.21987
4.07937
3.94552
3.81833
3.69781
3.58394
3.47668
3.37601
3.28186
3.1942
3.11296
3.03807
2.96949
2.90714
2.85096
2.80089
2.75687
2.71885
2.68678
2.66059
2.64019
2.62533
2.61681
2.63298
2275.93
-457.798
-117.782
-14.894
0.120832
2.41271
3.39779
4.12973
4.73589
5.27983
5.79225
6.28398
6.75775
7.21359
7.65074
8.06828
8.46529
8.84096
9.19457
9.52555
9.83345
10.1179
10.3788
10.6159
10.8291
11.0187
11.1845
11.327
11.4463
11.5428
11.617
11.6692
11.7
11.7101
11.7
11.6705
11.6224
11.5563
11.4733
11.374
11.2595
11.1306
10.9883
10.8335
10.6673
10.4905
10.3041
10.1091
9.90645
9.69708
9.48191
9.26183
9.03773
8.81044
8.58079
8.34956
8.11751
7.88535
7.65377
7.4234
7.19487
6.96872
6.7455
6.52568
6.30973
6.09805
5.89101
5.68896
5.49219
5.30098
5.11556
4.93613
4.76286
4.5959
4.43537
4.28136
4.13393
3.99315
3.85903
3.73159
3.61083
3.49673
3.38926
3.28838
3.19404
3.1062
3.02479
2.94976
2.88103
2.81855
2.76225
2.71207
2.66796
2.62986
2.59771
2.57147
2.55102
2.53614
2.52761
2.54269
2275.93
-457.801
-117.786
-14.9005
0.112508
2.40255
3.38581
4.11593
4.72028
5.26244
5.77309
6.26308
6.73511
7.18924
7.6247
8.04058
8.43595
8.81
9.16202
9.49144
9.79781
10.0808
10.3402
10.5758
10.7876
10.9757
11.1403
11.2814
11.3994
11.4946
11.5675
11.6185
11.6482
11.6571
11.6459
11.6153
11.5661
11.499
11.4149
11.3147
11.1992
11.0694
10.9262
10.7706
10.6034
10.4258
10.2386
10.0429
9.8395
9.6294
9.41353
9.19277
8.968
8.74007
8.5098
8.27797
8.04534
7.81262
7.58049
7.34961
7.12056
6.89392
6.67023
6.44995
6.23356
6.02145
5.814
5.61155
5.4144
5.22282
5.03705
4.85728
4.68368
4.51641
4.35558
4.20128
4.05359
3.91254
3.77817
3.6505
3.52951
3.4152
3.30752
3.20645
3.11194
3.02393
2.94237
2.86719
2.79833
2.73572
2.67931
2.62903
2.58483
2.54664
2.51442
2.48812
2.46763
2.45274
2.44419
2.45826
2275.93
-457.804
-117.791
-14.9066
0.104606
2.39291
3.37443
4.10283
4.70547
5.24594
5.75491
6.24324
6.71364
7.16615
7.60002
8.01433
8.40816
8.78069
9.13122
9.45917
9.76409
10.0457
10.3036
10.5379
10.7484
10.9352
11.0985
11.2384
11.3552
11.4492
11.5209
11.5708
11.5994
11.6072
11.595
11.5634
11.5132
11.4452
11.3602
11.259
11.1427
11.012
10.868
10.7116
10.5437
10.3653
10.1774
9.98096
9.77689
9.56614
9.34962
9.12825
8.90288
8.67437
8.44354
8.21117
7.97801
7.74478
7.51216
7.28079
7.05128
6.8242
6.60007
6.37938
6.16258
5.95008
5.74226
5.53945
5.34195
5.15004
4.96394
4.78386
4.60996
4.4424
4.2813
4.12673
3.97878
3.8375
3.7029
3.575
3.45381
3.3393
3.23144
3.13019
3.03551
2.94734
2.86563
2.79032
2.72133
2.65861
2.60209
2.55171
2.50742
2.46916
2.43687
2.41051
2.38998
2.37507
2.3665
2.37964
2275.93
-457.806
-117.795
-14.9124
0.0971279
2.38378
3.36366
4.09043
4.69146
5.23032
5.73771
6.22447
6.69333
7.14432
7.5767
7.98953
8.38191
8.75302
9.10215
9.42873
9.73231
10.0126
10.2692
10.5023
10.7115
10.8971
11.0592
11.198
11.3136
11.4066
11.4772
11.5261
11.5536
11.5605
11.5473
11.5148
11.4637
11.3948
11.309
11.207
11.0899
10.9585
10.8137
10.6566
10.488
10.3089
10.1204
9.92329
9.7186
9.50726
9.29017
9.06824
8.84233
8.61331
8.38197
8.14911
7.91547
7.68179
7.44872
7.21693
6.987
6.75952
6.535
6.31394
6.09677
5.88392
5.67576
5.47262
5.2748
5.08258
4.89619
4.71582
4.54165
4.37383
4.21247
4.05767
3.90948
3.76797
3.63316
3.50507
3.38368
3.26898
3.16094
3.05953
2.9647
2.87638
2.79454
2.71909
2.64999
2.58715
2.53054
2.48007
2.43569
2.39736
2.36501
2.33859
2.31801
2.30309
2.29451
2.30679
2275.93
-457.809
-117.799
-14.9179
0.0900728
2.37517
3.3535
4.07874
4.67825
5.2156
5.7215
6.20679
6.67419
7.12375
7.55473
7.96618
8.35721
8.72699
9.07482
9.40012
9.70246
9.98148
10.237
10.4688
10.677
10.8615
11.0224
11.1601
11.2748
11.3667
11.4364
11.4843
11.5109
11.5169
11.5029
11.4695
11.4176
11.348
11.2613
11.1587
11.0408
10.9087
10.7633
10.6055
10.4363
10.2566
10.0675
9.86984
9.66461
9.45274
9.23514
9.01272
8.78633
8.55684
8.32506
8.09176
7.85771
7.62361
7.39015
7.15798
6.92768
6.69984
6.47497
6.25357
6.03608
5.82291
5.61444
5.41101
5.21291
5.02041
4.83375
4.65313
4.47871
4.31065
4.14906
3.99403
3.84563
3.70392
3.56891
3.44063
3.31906
3.20419
3.096
2.99443
2.89945
2.811
2.72903
2.65346
2.58425
2.52131
2.4646
2.41405
2.36959
2.33119
2.29878
2.27231
2.25169
2.23675
2.22815
2.23965
2275.93
-457.811
-117.802
-14.9231
0.0834367
2.36708
3.34396
4.06775
4.66583
5.20177
5.70627
6.19018
6.65623
7.10445
7.53412
7.94429
8.33405
8.7026
9.04922
9.37335
9.67453
9.95243
10.2068
10.4376
10.6447
10.8282
10.9882
11.1249
11.2386
11.3296
11.3984
11.4455
11.4713
11.4764
11.4616
11.4275
11.3749
11.3045
11.2172
11.1139
10.9954
10.8627
10.7167
10.5583
10.3886
10.2084
10.0187
9.8206
9.61489
9.40255
9.18451
8.96165
8.73485
8.50495
8.27277
8.03909
7.80467
7.57022
7.33641
7.1039
6.87328
6.64512
6.41994
6.19824
5.98046
5.76702
5.55828
5.35458
5.15622
4.96348
4.77657
4.59572
4.42108
4.2528
4.091
3.93577
3.78718
3.64528
3.5101
3.38164
3.25991
3.14489
3.03654
2.93484
2.83972
2.75115
2.66905
2.59338
2.52406
2.46103
2.40423
2.35359
2.30906
2.27059
2.23813
2.21161
2.19095
2.17599
2.16737
2.17816
2275.93
-457.813
-117.806
-14.9279
0.0771992
2.35949
3.33502
4.05747
4.65421
5.18883
5.69203
6.17466
6.63944
7.08642
7.51486
7.92384
8.31244
8.67985
9.02536
9.3484
9.64852
9.92539
10.1788
10.4086
10.6147
10.7973
10.9563
11.0922
11.205
11.2953
11.3633
11.4096
11.4346
11.4391
11.4236
11.3888
11.3355
11.2645
11.1766
11.0727
10.9537
10.8205
10.6739
10.5151
10.3448
10.1642
9.9741
9.77552
9.5694
9.35666
9.13823
8.915
8.68783
8.45759
8.22507
7.99106
7.75632
7.52156
7.28745
7.05465
6.82374
6.59531
6.36987
6.14791
5.92987
5.71618
5.5072
5.30327
5.10469
4.91173
4.72461
4.54355
4.36871
4.20024
4.03825
3.88284
3.73408
3.59201
3.45666
3.32805
3.20617
3.09101
2.98252
2.88069
2.78545
2.69676
2.61456
2.53878
2.46936
2.40624
2.34936
2.29865
2.25405
2.21552
2.183
2.15644
2.13574
2.12077
2.11212
2.12226
2275.93
-457.815
-117.809
-14.9326
0.0712747
2.35237
3.32669
4.04789
4.64339
5.17678
5.67877
6.16021
6.62381
7.06964
7.49695
7.90483
8.29236
8.65872
9.00321
9.32526
9.62442
9.90035
10.1528
10.3817
10.587
10.7687
10.927
11.0621
11.1742
11.2637
11.331
11.3765
11.401
11.4048
11.3887
11.3533
11.2995
11.2279
11.1395
11.0351
10.9156
10.7819
10.6349
10.4757
10.305
10.124
9.93353
9.73458
9.52811
9.31504
9.09628
8.87273
8.64526
8.41472
8.18192
7.94763
7.71262
7.4776
7.24324
7.01019
6.77904
6.55037
6.3247
6.10252
5.88427
5.67036
5.46118
5.25705
5.05827
4.86511
4.67781
4.49657
4.32155
4.15291
3.99076
3.83519
3.68627
3.54405
3.40856
3.2798
3.15779
3.04249
2.93389
2.83194
2.73659
2.64779
2.56548
2.48961
2.42011
2.35691
2.29994
2.24916
2.20451
2.16592
2.13334
2.10674
2.08601
2.07102
2.06235
2.07191
2275.93
-457.817
-117.812
-14.9374
0.0653202
2.34553
3.3189
4.039
4.63336
5.16562
5.6665
6.14683
6.60935
7.05412
7.4804
7.88726
8.27381
8.63922
8.98278
9.30393
9.60222
9.8773
10.129
10.3571
10.5616
10.7426
10.9001
11.0345
11.1459
11.2348
11.3015
11.3464
11.3703
11.3736
11.3569
11.3211
11.2668
11.1948
11.1059
11.0011
10.8812
10.7471
10.5997
10.4401
10.2691
10.0878
9.897
9.69776
9.49099
9.27765
9.05862
8.83482
8.6071
8.37632
8.14328
7.90877
7.67354
7.4383
7.20373
6.97047
6.73913
6.51026
6.2844
6.06203
5.8436
5.62952
5.42016
5.21585
5.01691
4.82359
4.63613
4.45473
4.27956
4.11077
3.94847
3.79276
3.6437
3.50135
3.36572
3.23685
3.11471
2.9993
2.89058
2.78852
2.69307
2.60418
2.52178
2.44582
2.37624
2.31296
2.25593
2.20509
2.16037
2.12173
2.08911
2.06246
2.0417
2.02669
2.01801
2.02704
2275.93
-457.819
-117.816
-14.9435
0.058133
2.33822
3.31139
4.03078
4.62416
5.15537
5.65521
6.13453
6.59606
7.03986
7.46518
7.87113
8.25678
8.62133
8.96406
9.28441
9.58191
9.85625
10.1072
10.3346
10.5384
10.7187
10.8757
11.0094
11.1203
11.2086
11.2747
11.3192
11.3426
11.3454
11.3283
11.292
11.2373
11.1649
11.0757
10.9706
10.8503
10.7159
10.5683
10.4084
10.2371
10.0555
9.86448
9.66501
9.45802
9.24445
9.02522
8.80122
8.57331
8.34233
8.10911
7.87443
7.63902
7.40361
7.16888
6.93546
6.70396
6.47494
6.24893
6.02641
5.80783
5.5936
5.38409
5.17965
4.98057
4.78711
4.59951
4.41798
4.24268
4.07376
3.91134
3.7555
3.60633
3.46386
3.32812
3.19913
3.07689
2.96138
2.85256
2.75041
2.65486
2.56588
2.4834
2.40737
2.33771
2.27436
2.21727
2.16636
2.12159
2.0829
2.05024
2.02356
2.00277
1.98774
1.97904
1.9876
2275.92
-457.821
-117.819
-14.9524
0.0464023
2.32784
3.30289
4.02285
4.61576
5.14612
5.64502
6.1234
6.58402
7.02691
7.45137
7.85648
8.24132
8.60509
8.94708
9.2667
9.56352
9.83719
10.0875
10.3143
10.5175
10.6973
10.8537
10.9869
11.0973
11.1851
11.2508
11.2949
11.3178
11.3202
11.3028
11.2662
11.2111
11.1385
11.049
10.9435
10.823
10.6884
10.5405
10.3804
10.209
10.0272
9.83595
9.6363
9.42916
9.21543
8.99605
8.7719
8.54385
8.31274
8.07939
7.84458
7.60905
7.37352
7.13866
6.90512
6.6735
6.44437
6.21824
5.9956
5.77691
5.56257
5.35295
5.14839
4.9492
4.75563
4.56792
4.38628
4.21088
4.04185
3.87932
3.72338
3.5741
3.43153
3.2957
3.16662
3.04428
2.92868
2.81977
2.71753
2.62191
2.53285
2.4503
2.37419
2.30447
2.24106
2.18391
2.13295
2.08813
2.0494
2.0167
1.98998
1.96916
1.95412
1.94541
1.95355
2275.91
-457.826
-117.812
-14.961
0.0249342
2.30789
3.28929
4.01338
4.60766
5.13794
5.63622
6.11382
6.57361
7.01569
7.43935
7.84368
8.22777
8.59082
8.93212
9.25109
9.54728
9.82034
10.0701
10.2963
10.499
10.6783
10.8342
10.967
11.0769
11.1644
11.2297
11.2734
11.296
11.2981
11.2804
11.2435
11.1882
11.1153
11.0256
10.92
10.7993
10.6645
10.5165
10.3562
10.1846
10.0027
9.81138
9.61162
9.40437
9.19055
8.97107
8.74683
8.5187
8.28751
8.05407
7.81918
7.58357
7.34796
7.11303
6.87941
6.64772
6.4185
6.19229
5.96958
5.7508
5.53638
5.32668
5.12204
4.92276
4.72911
4.54132
4.35959
4.1841
4.01499
3.85237
3.69635
3.54699
3.40433
3.26842
3.13925
3.01684
2.90115
2.79218
2.68986
2.59417
2.50504
2.42242
2.34626
2.27647
2.21301
2.15581
2.1048
2.05994
2.02117
1.98843
1.96168
1.94084
1.92579
1.91706
1.92485
2275.78
-457.907
-117.78
-14.9338
0.000972271
2.27071
3.26178
3.9966
4.59691
5.1297
5.62877
6.10639
6.56583
7.00738
7.43041
7.83406
8.21745
8.57979
8.92038
9.23866
9.53417
9.80659
10.0557
10.2813
10.4835
10.6622
10.8176
10.95
11.0595
11.1465
11.2115
11.2549
11.2772
11.2791
11.2611
11.224
11.1685
11.0954
11.0056
10.8998
10.779
10.6441
10.496
10.3356
10.164
9.982
9.79063
9.59083
9.38353
9.16968
8.95017
8.72589
8.49773
8.26651
8.03305
7.79813
7.56249
7.32685
7.09189
6.85824
6.6265
6.39725
6.171
5.94825
5.72943
5.51496
5.30521
5.10052
4.90118
4.70747
4.51963
4.33784
4.16228
3.99311
3.83043
3.67434
3.52491
3.38219
3.24621
3.11698
2.9945
2.87876
2.76972
2.66734
2.57159
2.4824
2.39973
2.32351
2.25367
2.19017
2.13292
2.08187
2.03697
1.99817
1.9654
1.93862
1.91776
1.90269
1.89395
1.90143
2274.75
-458.773
-117.918
-14.7829
0.0433121
2.23321
3.21412
3.96078
4.5724
5.11242
5.61585
6.09613
6.55717
6.99956
7.42289
7.82646
8.20951
8.57132
8.91128
9.22885
9.52362
9.79527
10.0436
10.2685
10.47
10.6481
10.8029
10.9347
11.0437
11.1303
11.1949
11.238
11.26
11.2616
11.2435
11.2063
11.1507
11.0775
10.9876
10.8818
10.761
10.6261
10.478
10.3177
10.1461
9.96415
9.77284
9.5731
9.36587
9.15207
8.93263
8.70842
8.48032
8.24916
8.01576
7.78089
7.5453
7.30971
7.07479
6.84118
6.60948
6.38025
6.15402
5.93128
5.71247
5.49801
5.28826
5.08356
4.88422
4.6905
4.50263
4.32082
4.14524
3.97604
3.81333
3.6572
3.50774
3.36498
3.22895
3.09968
2.97716
2.86137
2.75228
2.64986
2.55407
2.46484
2.38212
2.30586
2.23599
2.17244
2.11516
2.06408
2.01915
1.98032
1.94753
1.92073
1.89985
1.88477
1.87602
1.88322
2267.58
-465.197
-120.508
-14.8834
0.252837
2.28747
3.17732
3.89877
4.5065
5.04713
5.55214
6.03443
6.4976
6.94203
7.36723
7.77252
8.15724
8.52075
8.86245
9.18183
9.47846
9.752
10.0022
10.2289
10.4321
10.6119
10.7682
10.9014
11.0118
11.0996
11.1653
11.2094
11.2324
11.2349
11.2175
11.1811
11.1262
11.0537
10.9645
10.8593
10.7391
10.6048
10.4572
10.2974
10.1263
9.94488
9.75403
9.55473
9.34793
9.13455
8.9155
8.69166
8.46391
8.23309
8
7.76543
7.53012
7.29479
7.06012
6.82673
6.59524
6.36621
6.14016
5.91758
5.69893
5.4846
5.27497
5.07038
4.87113
4.6775
4.4897
4.30796
4.13243
3.96327
3.8006
3.6445
3.49506
3.35231
3.2163
3.08703
2.96451
2.84872
2.73962
2.63719
2.54139
2.45214
2.36941
2.29313
2.22324
2.15968
2.10238
2.05129
2.00634
1.9675
1.93469
1.90788
1.88699
1.87191
1.86314
1.87015
2238.67
-493.636
-135.331
-18.2747
0.327784
2.65832
3.33765
3.90279
4.41635
4.88837
5.33692
5.77331
6.20181
6.62282
7.03498
7.4363
7.82458
8.1977
8.55366
8.89067
9.20718
9.50189
9.77372
10.0219
10.2458
10.445
10.6196
10.7695
10.8948
10.9961
11.0737
11.1282
11.1603
11.1706
11.1601
11.1295
11.0797
11.0117
10.9262
10.8243
10.707
10.5752
10.4299
10.2721
10.1028
9.92291
9.73351
9.53552
9.32991
9.11761
8.89955
8.67663
8.44971
8.21964
7.98725
7.75332
7.51859
7.28379
7.0496
6.81665
6.58556
6.35688
6.13116
5.90887
5.69047
5.47637
5.26694
5.06253
4.86344
4.66994
4.48226
4.30061
4.12517
3.95608
3.79346
3.6374
3.48799
3.34527
3.20927
3.08001
2.95749
2.84169
2.73259
2.63015
2.53432
2.44506
2.36231
2.28601
2.2161
2.15252
2.0952
2.04409
1.99912
1.96026
1.92744
1.90062
1.87971
1.86462
1.85592
1.86318
2510.06
-440.159
-116.266
-10.7115
3.26033
3.8183
3.88809
4.30118
4.8363
5.38812
5.92732
6.44605
6.94154
7.41237
7.85773
8.27714
8.67038
9.03738
9.37821
9.69303
9.98208
10.2456
10.484
10.6975
10.8865
11.0514
11.1926
11.3105
11.4055
11.4781
11.5288
11.5582
11.5668
11.5552
11.5242
11.4744
11.4065
11.3215
11.22
11.103
10.9713
10.8258
10.6675
10.4973
10.3162
10.1251
9.92491
9.71664
9.5012
9.27953
9.05251
8.82104
8.58596
8.34813
8.10833
7.86734
7.62591
7.38473
7.14448
6.90578
6.66923
6.43538
6.20475
5.97783
5.75505
5.5368
5.32347
5.11537
4.91281
4.71604
4.52528
4.34074
4.16258
3.99095
3.82594
3.66766
3.51616
3.37149
3.23367
3.10272
2.97862
2.86136
2.7509
2.64721
2.55023
2.4599
2.37617
2.29898
2.22825
2.16392
2.10593
2.05422
2.00872
1.96938
1.93615
1.90897
1.88775
1.87243
1.86396
1.87426
)
;

boundaryField
{
    xmin
    {
        type            calculated;
        value           uniform 0;
    }
    xmax
    {
        type            calculated;
        value           nonuniform List<scalar> 
100
(
2196.3
-385.131
-101.719
-9.35349
2.87732
3.37096
3.43741
3.80422
4.27778
4.7659
5.24292
5.70199
6.14067
6.55771
6.9524
7.32431
7.67326
7.99917
8.3021
8.5822
8.83965
9.07471
9.28763
9.47873
9.6483
9.79668
9.92421
10.0313
10.1182
10.1854
10.2334
10.2626
10.2735
10.2667
10.2427
10.2022
10.1459
10.0743
9.9883
9.8886
9.77596
9.6512
9.51511
9.36852
9.21227
9.04718
8.8741
8.69384
8.50723
8.31508
8.11818
7.9173
7.71321
7.50662
7.29825
7.08878
6.87885
6.66908
6.46006
6.25235
6.04647
5.8429
5.6421
5.44449
5.25046
5.06037
4.87453
4.69323
4.51674
4.34529
4.17907
4.01826
3.863
3.71343
3.56963
3.4317
3.29968
3.17361
3.05353
2.93944
2.83133
2.72918
2.63298
2.54269
2.45826
2.37964
2.30679
2.23965
2.17816
2.12226
2.07191
2.02704
1.9876
1.95355
1.92485
1.90143
1.88322
1.87015
1.86318
1.87426
)
;
    }
    ymin
    {
        type            calculated;
        value           uniform 0;
    }
    ymax
    {
        type            calculated;
        value           nonuniform List<scalar> 
100
(
2510.06
-440.159
-116.266
-10.7115
3.26033
3.8183
3.88809
4.30118
4.8363
5.38812
5.92732
6.44605
6.94154
7.41237
7.85773
8.27714
8.67038
9.03738
9.37821
9.69303
9.98208
10.2456
10.484
10.6975
10.8865
11.0514
11.1926
11.3105
11.4055
11.4781
11.5288
11.5582
11.5668
11.5552
11.5242
11.4744
11.4065
11.3215
11.22
11.103
10.9713
10.8258
10.6675
10.4973
10.3162
10.1251
9.92491
9.71664
9.5012
9.27953
9.05251
8.82104
8.58596
8.34813
8.10833
7.86734
7.62591
7.38473
7.14448
6.90578
6.66923
6.43538
6.20475
5.97783
5.75505
5.5368
5.32347
5.11537
4.91281
4.71604
4.52528
4.34074
4.16258
3.99095
3.82594
3.66766
3.51616
3.37149
3.23367
3.10272
2.97862
2.86136
2.7509
2.64721
2.55023
2.4599
2.37617
2.29898
2.22825
2.16392
2.10593
2.05422
2.00872
1.96938
1.93615
1.90897
1.88775
1.87243
1.86396
1.87426
)
;
    }
    frontAndBack
    {
        type            empty;
    }
}


// ************************************************************************* //
