/*--------------------------------*- C++ -*----------------------------------*\
  =========                 |
  \\      /  F ield         | OpenFOAM: The Open Source CFD Toolbox
   \\    /   O peration     | Website:  https://openfoam.org
    \\  /    A nd           | Version:  10
     \\/     M anipulation  |
\*---------------------------------------------------------------------------*/
FoamFile
{
    format      ascii;
    class       volScalarField;
    location    "9.5";
    object      ddt0(T);
}
// * * * * * * * * * * * * * * * * * * * * * * * * * * * * * * * * * * * * * //

dimensions      [0 0 -1 1 0 0 0];

internalField   nonuniform List<scalar> 
10000
(
4369.54
1771.37
1844.91
1880.61
1885.6
1886.32
1886.56
1886.66
1886.71
1886.73
1886.74
1886.75
1886.76
1886.77
1886.78
1886.79
1886.8
1886.81
1886.82
1886.83
1886.84
1886.84
1886.85
1886.86
1886.86
1886.87
1886.87
1886.88
1886.88
1886.89
1886.89
1886.9
1886.9
1886.9
1886.91
1886.91
1886.91
1886.91
1886.91
1886.92
1886.92
1886.92
1886.92
1886.92
1886.92
1886.92
1886.92
1886.92
1886.92
1886.92
1886.92
1886.92
1886.92
1886.91
1886.91
1886.91
1886.91
1886.91
1886.91
1886.91
1886.9
1886.9
1886.9
1886.9
1886.9
1886.9
1886.89
1886.89
1886.89
1886.89
1886.89
1886.88
1886.88
1886.88
1886.88
1886.88
1886.88
1886.88
1886.87
1886.87
1886.87
1886.87
1886.87
1886.87
1886.87
1886.87
1886.87
1886.86
1886.86
1886.86
1886.86
1886.86
1886.86
1886.86
1886.85
1886.75
1885.92
1879.84
1853.4
2068.91
2080.76
-733.573
-478.138
-401.055
-391.63
-390.78
-390.534
-390.389
-390.31
-390.262
-390.225
-390.192
-390.161
-390.132
-390.103
-390.075
-390.048
-390.022
-389.997
-389.973
-389.95
-389.929
-389.908
-389.888
-389.87
-389.852
-389.836
-389.82
-389.806
-389.792
-389.78
-389.768
-389.758
-389.748
-389.739
-389.731
-389.724
-389.718
-389.713
-389.709
-389.705
-389.702
-389.7
-389.698
-389.697
-389.697
-389.697
-389.698
-389.7
-389.702
-389.704
-389.707
-389.71
-389.713
-389.717
-389.721
-389.725
-389.73
-389.734
-389.739
-389.744
-389.749
-389.754
-389.76
-389.765
-389.77
-389.775
-389.78
-389.786
-389.791
-389.796
-389.801
-389.806
-389.81
-389.815
-389.82
-389.824
-389.828
-389.832
-389.836
-389.84
-389.844
-389.847
-389.851
-389.854
-389.857
-389.86
-389.862
-389.865
-389.867
-389.869
-389.871
-389.873
-389.875
-389.876
-389.923
-390.56
-395.734
-419.949
-376.319
2123.56
-521.146
-197.605
-106.548
-95.2188
-94.1462
-93.8365
-93.649
-93.5397
-93.4675
-93.409
-93.3555
-93.3044
-93.2548
-93.2067
-93.16
-93.1149
-93.0715
-93.0297
-92.9897
-92.9515
-92.915
-92.8803
-92.8473
-92.8162
-92.7867
-92.759
-92.733
-92.7086
-92.686
-92.6649
-92.6455
-92.6277
-92.6115
-92.5968
-92.5836
-92.5719
-92.5617
-92.5528
-92.5453
-92.5391
-92.5341
-92.5304
-92.5278
-92.5263
-92.5258
-92.5263
-92.5277
-92.53
-92.5331
-92.5369
-92.5414
-92.5465
-92.5522
-92.5584
-92.5651
-92.5722
-92.5796
-92.5873
-92.5954
-92.6036
-92.612
-92.6205
-92.6292
-92.6379
-92.6466
-92.6553
-92.664
-92.6726
-92.6811
-92.6895
-92.6978
-92.7059
-92.7138
-92.7216
-92.7291
-92.7364
-92.7435
-92.7504
-92.757
-92.7633
-92.7694
-92.7752
-92.7808
-92.786
-92.791
-92.7957
-92.8001
-92.8042
-92.808
-92.8116
-92.8151
-92.8186
-92.8212
-92.814
-92.7735
-92.8241
-94.8092
-107.229
-90.6116
2151.38
-455.335
-118.324
-24.5978
-12.9019
-11.7593
-11.4068
-11.1859
-11.0502
-10.955
-10.8752
-10.8013
-10.7303
-10.6614
-10.5945
-10.5296
-10.4669
-10.4064
-10.3482
-10.2924
-10.239
-10.1881
-10.1396
-10.0935
-10.0499
-10.0087
-9.96993
-9.9335
-9.89944
-9.8677
-9.83828
-9.81113
-9.78622
-9.76352
-9.74299
-9.72458
-9.70824
-9.69391
-9.68154
-9.67107
-9.66242
-9.65552
-9.65031
-9.6467
-9.64462
-9.64398
-9.64471
-9.64672
-9.64993
-9.65426
-9.65962
-9.66594
-9.67314
-9.68113
-9.68984
-9.69919
-9.70911
-9.71954
-9.73039
-9.74161
-9.75314
-9.76491
-9.77687
-9.78896
-9.80114
-9.81335
-9.82554
-9.83769
-9.84974
-9.86167
-9.87343
-9.885
-9.89636
-9.90747
-9.91831
-9.92886
-9.93911
-9.94903
-9.95862
-9.96786
-9.97674
-9.98525
-9.99338
-10.0011
-10.0085
-10.0155
-10.022
-10.0282
-10.034
-10.0394
-10.0444
-10.0495
-10.0555
-10.0637
-10.0712
-10.0448
-9.8904
-9.87186
-12.6164
-6.06556
2155.32
-447.256
-108.448
-14.3661
-2.60412
-1.42323
-1.03727
-0.788558
-0.628892
-0.511908
-0.411367
-0.317307
-0.226642
-0.138562
-0.0529458
0.0301175
0.110488
0.188031
0.262635
0.334219
0.402728
0.468131
0.530414
0.589575
0.64562
0.698565
0.748426
0.795226
0.838992
0.879752
0.917541
0.952395
0.984358
1.01348
1.03981
1.06341
1.08435
1.1027
1.11853
1.13193
1.14298
1.15178
1.15842
1.16301
1.16563
1.16639
1.16541
1.16278
1.15861
1.15301
1.14608
1.13792
1.12864
1.11835
1.10713
1.09508
1.08231
1.06889
1.05492
1.04048
1.02565
1.01051
0.995128
0.979578
0.963925
0.948228
0.932547
0.916934
0.901441
0.886113
0.870993
0.85612
0.84153
0.827256
0.813326
0.799766
0.786601
0.77385
0.761532
0.749662
0.738255
0.727322
0.716873
0.706917
0.69746
0.68851
0.68007
0.672143
0.664727
0.657811
0.651332
0.645023
0.637908
0.627208
0.608399
0.587765
0.628443
0.834341
0.940626
3.41607
2155.9
-446.523
-107.509
-13.3613
-1.56167
-0.347838
0.0665846
0.339945
0.521956
0.660073
0.781058
0.895068
1.00524
1.11236
1.21654
1.31765
1.41551
1.50995
1.60085
1.6881
1.77163
1.85139
1.92736
1.99953
2.06791
2.1325
2.19333
2.25041
2.30379
2.35349
2.39956
2.44204
2.48099
2.51646
2.54852
2.57725
2.60272
2.62503
2.64427
2.66054
2.67395
2.68461
2.69264
2.69815
2.70128
2.70214
2.70087
2.69759
2.69244
2.68554
2.67702
2.66701
2.65563
2.64301
2.62927
2.61453
2.59889
2.58248
2.56539
2.54773
2.52959
2.51108
2.49228
2.47327
2.45414
2.43496
2.4158
2.39672
2.37779
2.35907
2.3406
2.32243
2.30461
2.28718
2.27016
2.25361
2.23753
2.22196
2.20692
2.19243
2.1785
2.16516
2.1524
2.14025
2.1287
2.11778
2.10747
2.0978
2.08875
2.08032
2.0725
2.06515
2.05767
2.04798
2.03063
1.99891
1.96729
2.01622
2.33094
3.28915
2156.1
-446.307
-107.234
-13.0454
-1.21305
0.0290975
0.468415
0.764442
0.967851
1.12663
1.26778
1.40152
1.53099
1.65697
1.77952
1.89847
2.01363
2.1248
2.23181
2.33455
2.43293
2.52689
2.61639
2.70142
2.78198
2.85808
2.92975
2.997
3.05986
3.11839
3.17263
3.22263
3.26846
3.31019
3.34789
3.38166
3.41159
3.43779
3.46037
3.47945
3.49515
3.50761
3.51697
3.52337
3.52695
3.52787
3.52627
3.52232
3.51615
3.50792
3.49779
3.4859
3.47241
3.45745
3.44118
3.42372
3.40521
3.38579
3.36557
3.34469
3.32325
3.30136
3.27914
3.25668
3.23407
3.2114
3.18877
3.16623
3.14387
3.12176
3.09994
3.07849
3.05745
3.03687
3.01678
2.99723
2.97826
2.95988
2.94213
2.92502
2.90859
2.89284
2.87778
2.86344
2.84982
2.83693
2.82477
2.81335
2.80268
2.79275
2.78356
2.77509
2.76713
2.75874
2.7466
2.72333
2.68338
2.65174
2.78057
3.23032
2156.19
-446.177
-107.064
-12.8435
-0.983605
0.283077
0.745043
1.06256
1.28675
1.46583
1.62686
1.78009
1.92864
2.07324
2.21393
2.35051
2.48275
2.61042
2.73334
2.85136
2.96439
3.07235
3.1752
3.27292
3.3655
3.45296
3.5353
3.61256
3.68478
3.75201
3.81429
3.87169
3.92429
3.97216
4.0154
4.05411
4.08841
4.1184
4.14424
4.16604
4.18397
4.19816
4.20879
4.21601
4.22
4.22093
4.21896
4.21428
4.20706
4.19748
4.18571
4.17192
4.15628
4.13897
4.12013
4.09995
4.07856
4.05612
4.03277
4.00865
3.9839
3.95865
3.933
3.90708
3.881
3.85486
3.82875
3.80276
3.77698
3.75148
3.72634
3.70161
3.67735
3.65363
3.63048
3.60795
3.58608
3.56491
3.54446
3.52475
3.50582
3.48768
3.47034
3.45382
3.43813
3.42328
3.40928
3.39614
3.38385
3.37241
3.36184
3.35213
3.34328
3.33503
3.32599
3.31154
3.28193
3.23005
3.2287
3.5541
2156.23
-446.105
-106.962
-12.7153
-0.831716
0.457277
0.940643
1.27895
1.5235
1.72254
1.90318
2.07564
2.24299
2.40596
2.56453
2.71848
2.86755
3.01148
3.15006
3.28315
3.4106
3.53235
3.64835
3.75855
3.86296
3.96158
4.05443
4.14154
4.22295
4.29872
4.36889
4.43356
4.49279
4.54668
4.59534
4.63888
4.67743
4.71113
4.74012
4.76457
4.78463
4.80049
4.81231
4.8203
4.82463
4.8255
4.82312
4.81767
4.80936
4.79838
4.78493
4.76921
4.7514
4.73171
4.7103
4.68737
4.66309
4.63762
4.61113
4.58378
4.55571
4.52708
4.49801
4.46864
4.43909
4.40948
4.3799
4.35047
4.32127
4.2924
4.26393
4.23593
4.20847
4.18162
4.15542
4.12993
4.10518
4.08122
4.05808
4.03579
4.01437
3.99385
3.97424
3.95556
3.93782
3.92103
3.9052
3.89033
3.87644
3.86352
3.85157
3.84059
3.83063
3.82168
3.81344
3.80366
3.78346
3.72934
3.65088
3.99464
2156.25
-446.058
-106.892
-12.6225
-0.717086
0.593062
1.09712
1.45576
1.72029
1.93899
2.13894
2.33033
2.5162
2.69724
2.87341
3.04445
3.21006
3.36998
3.52396
3.67184
3.81348
3.94878
4.07769
4.20016
4.31618
4.42576
4.52892
4.62569
4.71612
4.80025
4.87816
4.94993
5.01565
5.07542
5.12936
5.17761
5.22029
5.25758
5.28963
5.31661
5.33872
5.35615
5.36909
5.37776
5.38237
5.38313
5.38027
5.374
5.36455
5.35213
5.33697
5.31928
5.29928
5.27718
5.25318
5.22749
5.20029
5.17178
5.14214
5.11155
5.08017
5.04815
5.01567
4.98284
4.94983
4.91674
4.88371
4.85084
4.81824
4.786
4.75421
4.72296
4.69232
4.66234
4.63311
4.60466
4.57705
4.55033
4.52451
4.49965
4.47577
4.45288
4.43101
4.41018
4.39041
4.37169
4.35404
4.33747
4.32199
4.30759
4.29428
4.28205
4.27094
4.26102
4.25241
4.24439
4.23002
4.17699
4.04205
4.45149
2156.26
-446.022
-106.834
-12.5431
-0.616879
0.713776
1.23806
1.61663
1.9008
2.13884
2.35777
2.56776
2.77183
2.97063
3.16408
3.35189
3.53374
3.70934
3.87844
4.04084
4.19638
4.34497
4.48653
4.62102
4.74843
4.86875
4.982
5.08822
5.18746
5.27977
5.36524
5.44394
5.51598
5.58147
5.64055
5.69336
5.74005
5.7808
5.81579
5.8452
5.86926
5.88816
5.90214
5.91141
5.91622
5.9168
5.9134
5.90625
5.89561
5.88171
5.86479
5.8451
5.82287
5.79834
5.77172
5.74324
5.71312
5.68156
5.64876
5.61492
5.58021
5.54482
5.50891
5.47264
5.43616
5.39961
5.36313
5.32683
5.29083
5.25524
5.22015
5.18566
5.15184
5.11876
5.08651
5.05512
5.02467
4.99519
4.96672
4.9393
4.91296
4.88773
4.86362
4.84066
4.81887
4.79824
4.77879
4.76054
4.74348
4.72762
4.71296
4.6995
4.68725
4.67631
4.66693
4.65929
4.64834
4.59698
4.41516
4.89896
2156.27
-445.989
-106.781
-12.4689
-0.52243
0.828271
1.37237
1.77051
2.07396
2.33097
2.56853
2.79678
3.0187
3.2349
3.44528
3.64953
3.84729
4.03825
4.22214
4.39875
4.5679
4.72949
4.88343
5.02968
5.16821
5.29902
5.42213
5.53758
5.64542
5.7457
5.83852
5.92397
6.00215
6.0732
6.13725
6.19447
6.24503
6.2891
6.3269
6.35863
6.38452
6.4048
6.41971
6.4295
6.43443
6.43475
6.43074
6.42266
6.41077
6.39533
6.37662
6.35489
6.3304
6.3034
6.27413
6.24285
6.20979
6.17516
6.13919
6.10209
6.06405
6.02528
5.98595
5.94623
5.9063
5.8663
5.82637
5.78665
5.74727
5.70834
5.66996
5.63224
5.59526
5.5591
5.52383
5.48953
5.45624
5.42402
5.39292
5.36296
5.33419
5.30663
5.28031
5.25523
5.23143
5.20891
5.18769
5.16776
5.14915
5.13184
5.11585
5.10117
5.08782
5.07585
5.06561
5.05775
5.04883
4.99934
4.77922
5.33049
2156.28
-445.958
-106.729
-12.3974
-0.431066
0.939265
1.50278
1.92009
2.24245
2.51804
2.77385
3.01997
3.25936
3.49259
3.71953
3.93984
4.15315
4.35913
4.55747
4.74795
4.9304
5.10468
5.2707
5.42842
5.5778
5.71884
5.85156
5.97599
6.09219
6.20022
6.30018
6.39217
6.47631
6.55272
6.62158
6.68305
6.73731
6.78457
6.82504
6.85896
6.88656
6.9081
6.92384
6.93405
6.93902
6.93901
6.93432
6.92523
6.91203
6.89501
6.87445
6.85063
6.82384
6.79435
6.76242
6.72831
6.69228
6.65457
6.61542
6.57505
6.53368
6.49153
6.44878
6.40562
6.36223
6.31878
6.27542
6.2323
6.18954
6.14728
6.10563
6.0647
6.02457
5.98534
5.94709
5.90989
5.87379
5.83885
5.80513
5.77266
5.74147
5.7116
5.68308
5.65591
5.63013
5.60574
5.58275
5.56118
5.54102
5.52229
5.50499
5.48911
5.47466
5.4617
5.45056
5.44221
5.43445
5.38684
5.13766
5.74384
2156.29
-445.928
-106.679
-12.3278
-0.342095
1.04744
1.62996
2.06602
2.40686
2.70063
2.97427
3.23785
3.49429
3.74414
3.98724
4.22323
4.45171
4.67233
4.88476
5.08877
5.28417
5.47081
5.6486
5.81748
5.97742
6.1284
6.27045
6.40361
6.52792
6.64347
6.75034
6.84865
6.93853
7.02013
7.0936
7.15914
7.21694
7.26723
7.31023
7.3462
7.37539
7.39807
7.41454
7.42507
7.42998
7.42955
7.4241
7.41393
7.39936
7.3807
7.35824
7.3323
7.30317
7.27115
7.23652
7.19956
7.16055
7.11974
7.0774
7.03376
6.98906
6.94351
6.89735
6.85075
6.80392
6.75703
6.71024
6.66372
6.61761
6.57204
6.52713
6.483
6.43975
6.39747
6.35625
6.31616
6.27727
6.23964
6.20332
6.16835
6.13477
6.10262
6.07191
6.04268
6.01494
5.9887
5.96397
5.94077
5.9191
5.89896
5.88036
5.86329
5.84777
5.83383
5.82182
5.81284
5.80561
5.7597
5.4908
6.13786
2156.3
-445.899
-106.63
-12.2601
-0.255423
1.15287
1.75393
2.2083
2.56717
2.87866
3.16969
3.45029
3.72335
3.98939
4.24824
4.49949
4.74273
4.97759
5.20373
5.4209
5.62888
5.82754
6.01676
6.19648
6.36666
6.52729
6.67839
6.81999
6.95215
7.07496
7.18851
7.29292
7.38833
7.47489
7.55278
7.62221
7.68338
7.73653
7.7819
7.81977
7.85042
7.87412
7.8912
7.90195
7.90669
7.90575
7.89947
7.88815
7.87215
7.85178
7.82737
7.79926
7.76775
7.73316
7.6958
7.65597
7.61395
7.57004
7.52449
7.47757
7.42953
7.3806
7.33102
7.28099
7.23072
7.18039
7.1302
7.08029
7.03084
6.98197
6.93382
6.88651
6.84016
6.79485
6.75068
6.70773
6.66608
6.62577
6.58687
6.54943
6.51348
6.47906
6.4462
6.41492
6.38524
6.35717
6.33073
6.30592
6.28276
6.26124
6.24136
6.22313
6.20655
6.19167
6.17879
6.1691
6.16196
6.11754
5.83754
6.5119
2156.31
-445.87
-106.583
-12.1942
-0.171139
1.25542
1.87455
2.34675
2.72317
3.05191
3.35985
3.657
3.94622
4.228
4.50214
4.76822
5.0258
5.27449
5.51393
5.74387
5.96407
6.17437
6.37467
6.56489
6.74498
6.91494
7.07478
7.22454
7.36428
7.49408
7.61405
7.72431
7.82502
7.91633
7.99844
8.07156
8.13591
8.19175
8.23934
8.27897
8.31092
8.33552
8.35308
8.36393
8.36841
8.36687
8.35966
8.34712
8.32961
8.30747
8.28106
8.25073
8.2168
8.17961
8.13949
8.09676
8.05172
8.00468
7.95591
7.90571
7.85432
7.80201
7.74901
7.69555
7.64185
7.58811
7.53451
7.48124
7.42846
7.37631
7.32494
7.27448
7.22503
7.17672
7.12963
7.08384
7.03943
6.99648
6.95503
6.91513
6.87684
6.84018
6.80519
6.77188
6.74029
6.71042
6.68229
6.6559
6.63126
6.60838
6.58726
6.56789
6.55028
6.53446
6.52074
6.51032
6.50294
6.45982
6.17624
6.86561
2156.32
-445.843
-106.537
-12.1303
-0.0893755
1.35494
1.99161
2.48113
2.87459
3.22008
3.54444
3.85765
4.16254
4.45959
4.74856
5.02901
5.30049
5.56257
5.81491
6.0572
6.28921
6.51079
6.72179
6.92215
7.11182
7.29078
7.45905
7.61666
7.76368
7.9002
8.02632
8.14219
8.24795
8.34378
8.42989
8.5065
8.57384
8.63219
8.68183
8.72305
8.75617
8.78152
8.79944
8.81028
8.8144
8.81216
8.80393
8.79009
8.771
8.74703
8.71856
8.68595
8.64956
8.60973
8.56683
8.52117
8.47309
8.4229
8.37091
8.31741
8.26267
8.20697
8.15057
8.09369
8.03657
7.97941
7.92243
7.86581
7.80971
7.7543
7.69973
7.64613
7.59363
7.54233
7.49233
7.44373
7.3966
7.35102
7.30704
7.26472
7.22411
7.18523
7.14813
7.11283
7.07935
7.0477
7.0179
6.98996
6.96388
6.93966
6.91731
6.89683
6.87822
6.8615
6.84696
6.83578
6.82795
6.78601
6.50515
7.19881
2156.33
-445.816
-106.493
-12.0686
-0.0102605
1.45126
2.10495
2.61123
3.02121
3.38292
3.72318
4.05194
4.37201
4.68383
4.98714
5.28149
5.5664
5.84144
6.10622
6.36044
6.60387
6.83631
7.05764
7.26778
7.46666
7.65428
7.83064
7.99579
8.14979
8.29274
8.42474
8.54594
8.65651
8.75663
8.84652
8.9264
8.99654
9.05721
9.10872
9.15138
9.18551
9.21148
9.22963
9.24033
9.24397
9.24093
9.2316
9.21637
9.19562
9.16976
9.13917
9.10424
9.06534
9.02284
8.97711
8.9285
8.87735
8.82401
8.76878
8.71197
8.65389
8.59481
8.53499
8.4747
8.41417
8.35362
8.29327
8.2333
8.17391
8.11527
8.05752
8.0008
7.94526
7.891
7.83812
7.78673
7.73691
7.68873
7.64225
7.59753
7.55462
7.51356
7.47437
7.4371
7.40175
7.36835
7.33691
7.30744
7.27993
7.25441
7.23086
7.20929
7.1897
7.17211
7.15677
7.14484
7.1364
7.09561
6.8225
7.51145
2156.34
-445.791
-106.45
-12.009
0.0660998
1.54426
2.21439
2.7369
3.16283
3.54022
3.89584
4.23962
4.57433
4.90042
5.21758
5.52534
5.82321
6.11073
6.38751
6.65322
6.90763
7.15054
7.3818
7.60132
7.80905
8.00497
8.18909
8.36145
8.52212
8.67119
8.80879
8.93507
9.05018
9.15435
9.24777
9.33072
9.40345
9.46625
9.51945
9.56337
9.59836
9.62479
9.64304
9.65349
9.65654
9.65259
9.64206
9.62536
9.60289
9.57506
9.54229
9.50498
9.46353
9.41832
9.36973
9.31814
9.26392
9.20739
9.14892
9.0888
9.02737
8.9649
8.90168
8.83798
8.77405
8.71012
8.64641
8.58313
8.52047
8.45861
8.3977
8.33789
8.27933
8.22213
8.16641
8.11226
8.05977
8.00901
7.96006
7.91297
7.86779
7.82457
7.78333
7.74411
7.70693
7.6718
7.63874
7.60776
7.57887
7.55206
7.52734
7.5047
7.48415
7.46571
7.44962
7.43694
7.42779
7.38816
7.12668
7.80357
2156.35
-445.766
-106.409
-11.9517
0.139626
1.63384
2.31983
2.85797
3.2993
3.69179
4.06222
4.42047
4.7693
5.10912
5.43961
5.76028
6.07062
6.37015
6.65846
6.93523
7.20018
7.45312
7.6939
7.92242
8.13862
8.34248
8.534
8.71324
8.88025
9.03515
9.17805
9.30911
9.42852
9.53647
9.6332
9.71898
9.79409
9.85883
9.91353
9.95854
9.99423
10.021
10.0392
10.0493
10.0516
10.0466
10.0348
10.0166
9.99228
9.96242
9.92741
9.88767
9.84362
9.79566
9.74419
9.6896
9.63226
9.57255
9.51081
9.44739
9.3826
9.31675
9.25014
9.18304
9.11572
9.04842
8.98138
8.9148
8.84888
8.78382
8.71978
8.65691
8.59536
8.53525
8.4767
8.41982
8.36468
8.31138
8.25999
8.21056
8.16314
8.11778
8.07452
8.03338
7.99439
7.95756
7.92291
7.89045
7.86019
7.83212
7.80625
7.78258
7.7611
7.74184
7.72501
7.71159
7.70167
7.66323
7.41621
8.07531
2156.36
-445.742
-106.37
-11.8966
0.210264
1.71992
2.42117
2.97435
3.43048
3.83751
4.22217
4.59434
4.95674
5.30975
5.65305
5.98612
6.30842
6.61947
6.91884
7.20619
7.48124
7.74379
7.99367
8.23078
8.45506
8.66648
8.86505
9.05082
9.22385
9.38425
9.53216
9.66772
9.79114
9.90262
10.0024
10.0908
10.1681
10.2345
10.2906
10.3365
10.3727
10.3996
10.4177
10.4272
10.4287
10.4227
10.4094
10.3895
10.3634
10.3314
10.2941
10.2519
10.2052
10.1544
10.1001
10.0424
9.98198
9.91906
9.85406
9.78731
9.71917
9.64994
9.57994
9.50946
9.43876
9.36811
9.29775
9.22789
9.15874
9.09051
9.02336
8.95745
8.89294
8.82995
8.76861
8.70902
8.65127
8.59546
8.54164
8.4899
8.44027
8.39281
8.34755
8.30452
8.26375
8.22525
8.18904
8.15513
8.12352
8.09422
8.06723
8.04254
8.02016
8.0001
7.98255
7.96841
7.95769
7.92046
7.6898
8.32681
2156.36
-445.72
-106.332
-11.8438
0.277978
1.80245
2.51835
3.08597
3.55631
3.97728
4.3756
4.76111
5.13651
5.50218
5.85774
6.20268
6.53644
6.85851
7.16845
7.46592
7.75061
8.02232
8.28088
8.52617
8.75814
8.97674
9.18199
9.37393
9.55265
9.71823
9.87083
10.0106
10.1378
10.2525
10.3551
10.4459
10.5251
10.5931
10.6502
10.6969
10.7335
10.7604
10.7781
10.787
10.7876
10.7803
10.7656
10.744
10.7159
10.6817
10.6421
10.5973
10.5479
10.4943
10.437
10.3763
10.3127
10.2466
10.1783
10.1082
10.0367
9.96415
9.89077
9.81691
9.74286
9.66887
9.5952
9.52209
9.44974
9.37836
9.30812
9.23921
9.17176
9.10592
9.04181
8.97954
8.91922
8.86092
8.80472
8.7507
8.69889
8.64935
8.60212
8.55723
8.51471
8.47457
8.43682
8.40149
8.36856
8.33806
8.30997
8.28429
8.26103
8.24019
8.22196
8.20711
8.19558
8.15957
7.94636
8.55828
2156.37
-445.698
-106.296
-11.7934
0.342752
1.88142
2.61134
3.19279
3.67672
4.11103
4.52242
4.92069
5.30853
5.68629
6.05358
6.40986
6.75455
7.08713
7.40716
7.71426
8.00814
8.28856
8.55536
8.80841
9.04765
9.27305
9.48461
9.68238
9.86643
10.0369
10.1939
10.3375
10.4682
10.5859
10.6911
10.784
10.8649
10.9342
10.9923
11.0395
11.0763
11.1031
11.1203
11.1285
11.128
11.1194
11.1031
11.0796
11.0495
11.0131
10.971
10.9237
10.8715
10.8151
10.7548
10.691
10.6243
10.5549
10.4833
10.4099
10.3351
10.2591
10.1824
10.1052
10.0278
9.95046
9.87351
9.79716
9.72163
9.64713
9.57384
9.50194
9.43159
9.36293
9.29609
9.23118
9.1683
9.10755
9.049
8.99272
8.93877
8.88719
8.83802
8.7913
8.74706
8.7053
8.66605
8.62931
8.5951
8.56341
8.53425
8.50761
8.48349
8.4619
8.443
8.42748
8.41514
8.38033
8.18498
8.76993
2156.38
-445.678
-106.261
-11.7452
0.404579
1.9568
2.70011
3.29476
3.79168
4.23873
4.66258
5.07303
5.47274
5.86202
6.24048
6.60756
6.96266
7.30524
7.63486
7.95111
8.2537
8.54238
8.81698
9.07737
9.32349
9.55528
9.77277
9.976
10.165
10.34
10.5011
10.6484
10.7822
10.9027
11.0101
11.1049
11.1874
11.2578
11.3166
11.3642
11.401
11.4275
11.4441
11.4514
11.4497
11.4396
11.4217
11.3963
11.364
11.3253
11.2808
11.2308
11.1759
11.1165
11.0532
10.9864
10.9164
10.8438
10.769
10.6922
10.614
10.5347
10.4546
10.374
10.2933
10.2127
10.1325
10.0529
9.97426
9.89666
9.82035
9.7455
9.67228
9.60083
9.53128
9.46376
9.39837
9.3352
9.27433
9.21583
9.15976
9.10617
9.0551
9.00658
8.96064
8.9173
8.87657
8.83847
8.80299
8.77015
8.73994
8.71236
8.6874
8.66509
8.64554
8.62936
8.61624
8.58261
8.40496
8.962
2156.38
-445.658
-106.228
-11.6994
0.46346
2.0286
2.78467
3.39189
3.90116
4.36034
4.79607
5.2181
5.62909
6.02933
6.41841
6.79574
7.16072
7.51279
7.85148
8.1764
8.48722
8.78371
9.06567
9.33297
9.58554
9.82334
10.0464
10.2547
10.4484
10.6276
10.7924
10.943
11.0797
11.2026
11.3122
11.4086
11.4923
11.5636
11.623
11.6708
11.7075
11.7335
11.7494
11.7556
11.7526
11.741
11.7212
11.6938
11.6594
11.6183
11.5712
11.5185
11.4608
11.3985
11.3322
11.2622
11.1891
11.1132
11.0351
10.955
10.8735
10.7908
10.7073
10.6234
10.5394
10.4555
10.3721
10.2893
10.2075
10.1269
10.0476
9.96979
9.89373
9.81952
9.74731
9.67722
9.60934
9.54379
9.48063
9.41995
9.3618
9.30623
9.25328
9.20299
9.15539
9.11049
9.06832
9.02887
8.99216
8.95819
8.92695
8.89846
8.8727
8.84967
8.82951
8.8127
8.79882
8.76631
8.60578
9.13473
2156.39
-445.64
-106.197
-11.6558
0.519404
2.09682
2.865
3.48417
4.00518
4.47588
4.92286
5.35589
5.77758
6.1882
6.58734
6.97438
7.3487
7.70974
8.05701
8.3901
8.70868
9.0125
9.30137
9.57516
9.83377
10.0772
10.3054
10.5184
10.7164
10.8994
11.0677
11.2213
11.3606
11.4857
11.5971
11.695
11.7797
11.8517
11.9114
11.9592
11.9956
12.021
12.036
12.041
12.0366
12.0234
12.0017
11.9723
11.9355
11.892
11.8423
11.7869
11.7263
11.6611
11.5916
11.5185
11.4422
11.3631
11.2816
11.1982
11.1134
11.0273
10.9406
10.8533
10.766
10.6789
10.5922
10.5063
10.4214
10.3377
10.2555
10.1748
10.0959
10.019
9.94416
9.87152
9.8012
9.73329
9.66789
9.60505
9.54485
9.48734
9.43255
9.38053
9.33129
9.28487
9.24128
9.20052
9.1626
9.12752
9.09529
9.06591
9.03936
9.01565
8.99489
8.97749
8.96289
8.93144
8.78713
9.28838
2156.4
-445.622
-106.168
-11.6145
0.572425
2.16147
2.94113
3.57161
4.10374
4.58533
5.04298
5.4864
5.9182
6.33865
6.74728
7.14348
7.5266
7.89609
8.25142
8.59219
8.91806
9.22876
9.52409
9.80392
10.0682
10.3168
10.5498
10.7672
10.9691
11.1556
11.327
11.4833
11.6249
11.752
11.8649
11.964
12.0495
12.122
12.1818
12.2295
12.2654
12.29
12.304
12.3077
12.3018
12.2868
12.2631
12.2315
12.1924
12.1464
12.0941
12.0359
11.9724
11.9041
11.8316
11.7553
11.6758
11.5934
11.5086
11.4219
11.3337
11.2444
11.1543
11.0638
10.9732
10.8828
10.793
10.704
10.616
10.5293
10.4441
10.3606
10.2789
10.1993
10.1219
10.0467
9.97399
9.90377
9.83614
9.77119
9.70898
9.64955
9.59296
9.53923
9.4884
9.44049
9.3955
9.35346
9.31436
9.27821
9.24501
9.21475
9.18744
9.16307
9.14174
9.12377
9.10851
9.07804
8.94882
9.42319
2156.4
-445.605
-106.14
-11.5755
0.622539
2.22257
3.01308
3.65423
4.19686
4.68874
5.15644
5.60966
6.051
6.48068
6.89824
7.30305
7.69446
8.07186
8.43476
8.78271
9.11538
9.43249
9.73385
10.0193
10.2887
10.5422
10.7796
11.001
11.2065
11.3962
11.5704
11.7291
11.8727
12.0015
12.1157
12.2157
12.3018
12.3746
12.4344
12.4816
12.5169
12.5406
12.5534
12.5557
12.5481
12.5312
12.5056
12.4717
12.4302
12.3816
12.3265
12.2655
12.1991
12.1278
12.0522
11.9727
11.8899
11.8042
11.7162
11.6262
11.5347
11.442
11.3486
11.2548
11.161
11.0674
10.9744
10.8823
10.7913
10.7016
10.6135
10.5272
10.4428
10.3605
10.2805
10.2029
10.1278
10.0553
9.98551
9.91848
9.85429
9.79298
9.73462
9.67922
9.62682
9.57744
9.5311
9.4878
9.44755
9.41035
9.37621
9.34511
9.31706
9.29205
9.27016
9.25165
9.23578
9.20622
9.09083
9.53946
2156.41
-445.59
-106.114
-11.5387
0.669767
2.28014
3.08086
3.73207
4.28457
4.78612
5.26327
5.72571
6.17599
6.61434
7.04029
7.45316
7.8523
8.23711
8.60706
8.96171
9.30071
9.62377
9.9307
10.2213
10.4956
10.7534
10.9948
11.2199
11.4286
11.6212
11.7978
11.9587
12.1041
12.2342
12.3494
12.4501
12.5367
12.6095
12.669
12.7158
12.7502
12.7729
12.7844
12.7851
12.7758
12.7569
12.7291
12.6929
12.6489
12.5977
12.5398
12.4759
12.4065
12.3322
12.2534
12.1708
12.0847
11.9958
11.9045
11.8111
11.7163
11.6203
11.5236
11.4266
11.3295
11.2328
11.1367
11.0415
10.9475
10.8549
10.7639
10.6748
10.5877
10.5028
10.4203
10.3403
10.2628
10.1881
10.1161
10.0471
9.98093
9.91779
9.85768
9.80065
9.74672
9.69591
9.64824
9.60371
9.56234
9.52412
9.48905
9.45714
9.42837
9.40274
9.38033
9.36132
9.34487
9.31616
9.21328
9.63747
2156.41
-445.575
-106.089
-11.5042
0.714134
2.33422
3.14452
3.80516
4.36692
4.87754
5.36354
5.83459
6.29325
6.7397
7.17346
7.59386
8.00021
8.39191
8.76841
9.12926
9.47411
9.80267
10.1147
10.4101
10.6888
10.9506
11.1957
11.424
11.6356
11.8307
12.0096
12.1722
12.3191
12.4503
12.5663
12.6675
12.7542
12.8269
12.886
12.932
12.9655
12.987
12.997
12.9961
12.9849
12.9639
12.9338
12.8952
12.8487
12.7948
12.7341
12.6673
12.5949
12.5175
12.4355
12.3497
12.2604
12.1682
12.0736
11.977
11.8788
11.7796
11.6796
11.5793
11.4791
11.3792
11.28
11.1818
11.0848
10.9893
10.8955
10.8036
10.7139
10.6264
10.5414
10.459
10.3792
10.3023
10.2282
10.1572
10.0891
10.0242
9.96237
9.90374
9.8483
9.7961
9.74713
9.7014
9.65894
9.61972
9.58377
9.55106
9.52159
9.49538
9.47245
9.45297
9.43601
9.40807
9.31638
9.71753
2156.42
-445.561
-106.066
-11.4718
0.755667
2.38483
3.20409
3.87355
4.44395
4.96303
5.45729
5.93638
6.40283
6.85683
7.29786
7.72524
8.13827
8.53634
8.9189
9.28548
9.63571
9.96932
10.2861
10.5858
10.8684
11.1339
11.3822
11.6134
11.8276
12.025
12.2056
12.3698
12.5179
12.65
12.7666
12.868
12.9546
13.0269
13.0854
13.1306
13.163
13.1831
13.1915
13.1888
13.1756
13.1525
13.1201
13.079
13.0298
12.9732
12.9096
12.8399
12.7644
12.6839
12.5988
12.5097
12.4172
12.3217
12.2238
12.1239
12.0225
11.92
11.8168
11.7133
11.6099
11.5069
11.4046
11.3034
11.2034
11.1051
11.0085
10.9139
10.8216
10.7316
10.6441
10.5593
10.4773
10.3982
10.3221
10.2491
10.1791
10.1124
10.049
9.98875
9.93185
9.87828
9.82804
9.78115
9.73762
9.69744
9.66061
9.62714
9.597
9.57021
9.5468
9.52687
9.50946
9.48223
9.40045
9.77999
2156.42
-445.548
-106.044
-11.4416
0.7944
2.43202
3.25963
3.93728
4.51573
5.04268
5.54461
6.03116
6.50484
6.96582
7.41357
7.8474
8.2666
8.67054
9.05865
9.43048
9.78564
10.1238
10.4448
10.7485
11.0347
11.3034
11.5546
11.7884
12.0048
12.2041
12.3863
12.5517
12.7007
12.8334
12.9503
13.0517
13.1381
13.2099
13.2676
13.3117
13.3428
13.3614
13.3681
13.3635
13.3482
13.3229
13.288
13.2444
13.1925
13.1331
13.0667
12.9939
12.9154
12.8317
12.7434
12.6512
12.5554
12.4566
12.3554
12.2522
12.1476
12.0418
11.9354
11.8287
11.7222
11.6161
11.5108
11.4066
11.3038
11.2026
11.1033
11.006
10.9111
10.8186
10.7287
10.6416
10.5574
10.4762
10.398
10.323
10.2513
10.1829
10.1177
10.056
9.99767
9.94277
9.89129
9.84327
9.7987
9.75758
9.71992
9.6857
9.65492
9.62757
9.6037
9.58335
9.56553
9.53896
9.46589
9.8252
2156.42
-445.536
-106.024
-11.4136
0.830369
2.47584
3.31117
3.99643
4.58233
5.11655
5.62558
6.11902
6.59937
7.06678
7.52072
7.96047
8.38533
8.79463
9.18783
9.56443
9.92405
10.2664
10.5912
10.8984
11.1878
11.4594
11.7131
11.9491
12.1674
12.3682
12.5517
12.7181
12.8677
13.0008
13.1178
13.219
13.3049
13.376
13.4327
13.4756
13.5053
13.5223
13.5271
13.5205
13.5031
13.4753
13.438
13.3917
13.3371
13.2748
13.2055
13.1297
13.0481
12.9613
12.8698
12.7743
12.6753
12.5733
12.4688
12.3624
12.2544
12.1454
12.0358
11.926
11.8164
11.7072
11.5989
11.4918
11.3861
11.2822
11.1801
11.0803
10.9828
10.8878
10.7956
10.7062
10.6198
10.5365
10.4564
10.3795
10.306
10.2358
10.1691
10.1059
10.0461
9.98993
9.93726
9.88813
9.84255
9.80052
9.76204
9.7271
9.6957
9.66783
9.64351
9.62278
9.60458
9.57862
9.51316
9.85358
2156.43
-445.525
-106.006
-11.3877
0.863617
2.51633
3.3588
4.05106
4.64382
5.18475
5.7003
6.20006
6.68653
7.15984
7.61944
8.0646
8.49461
8.90879
9.30659
9.6875
10.0511
10.3972
10.7255
11.0357
11.3279
11.602
11.8579
12.0958
12.3157
12.5178
12.7022
12.8693
13.0193
13.1525
13.2693
13.3701
13.4553
13.5255
13.5811
13.6227
13.6508
13.666
13.6689
13.6602
13.6404
13.6103
13.5704
13.5214
13.464
13.3988
13.3265
13.2477
13.163
13.073
12.9783
12.8796
12.7773
12.672
12.5643
12.4546
12.3434
12.2313
12.1185
12.0056
11.8928
11.7807
11.6694
11.5594
11.4509
11.3442
11.2395
11.1371
11.0371
10.9397
10.8451
10.7535
10.665
10.5796
10.4975
10.4188
10.3435
10.2717
10.2035
10.1388
10.0777
10.0202
9.96634
9.91614
9.86958
9.82667
9.7874
9.75176
9.71976
9.69138
9.66664
9.64555
9.62703
9.60164
9.5428
9.86555
2156.43
-445.515
-105.989
-11.3638
0.894192
2.55355
3.40257
4.10126
4.70031
5.24737
5.76888
6.27443
6.76648
7.24515
7.70989
8.15996
8.59462
9.0132
9.41513
9.7999
10.1671
10.5165
10.8478
11.1607
11.4554
11.7315
11.9893
12.2287
12.4499
12.6529
12.8381
13.0056
13.1557
13.2888
13.4052
13.5054
13.5898
13.6589
13.7132
13.7532
13.7796
13.7929
13.7938
13.7828
13.7607
13.728
13.6855
13.6338
13.5736
13.5055
13.4301
13.3482
13.2604
13.1672
13.0693
12.9673
12.8618
12.7533
12.6423
12.5294
12.4151
12.2997
12.1838
12.0678
11.952
11.8369
11.7227
11.6099
11.4986
11.3892
11.2818
11.1768
11.0744
10.9747
10.8778
10.784
10.6934
10.606
10.522
10.4415
10.3645
10.2911
10.2213
10.1551
10.0927
10.034
9.97901
9.92776
9.88025
9.83648
9.79644
9.76014
9.72755
9.69869
9.67355
9.65212
9.63332
9.60846
9.55535
9.86158
2156.43
-445.506
-105.973
-11.342
0.922145
2.58757
3.44256
4.14711
4.75189
5.30453
5.83146
6.34224
6.83934
7.32287
7.79224
8.24672
8.68556
9.10807
9.51367
9.90186
10.2722
10.6245
10.9584
11.2737
11.5704
11.8483
12.1076
12.3482
12.5703
12.774
12.9596
13.1272
13.2773
13.41
13.5258
13.6252
13.7086
13.7764
13.8292
13.8676
13.8922
13.9035
13.9022
13.8889
13.8643
13.8291
13.7839
13.7294
13.6662
13.5951
13.5168
13.4317
13.3407
13.2444
13.1433
13.0381
12.9294
12.8176
12.7034
12.5873
12.4698
12.3513
12.2323
12.1132
11.9945
11.8764
11.7593
11.6437
11.5296
11.4175
11.3076
11.2001
11.0953
10.9932
10.8941
10.7982
10.7055
10.6162
10.5303
10.448
10.3693
10.2943
10.223
10.1555
10.0918
10.0318
9.97575
9.92348
9.87505
9.83045
9.78967
9.75272
9.71958
9.69025
9.66474
9.64299
9.62395
9.59959
9.55144
9.84218
2156.44
-445.497
-105.959
-11.3222
0.947536
2.61847
3.47887
4.18871
4.79867
5.35635
5.88816
6.40367
6.9053
7.39317
7.86669
8.32509
8.76763
9.19362
9.60245
9.99363
10.3667
10.7215
11.0576
11.3749
11.6732
11.9526
12.2131
12.4546
12.6774
12.8815
13.0672
13.2347
13.3844
13.5166
13.6316
13.73
13.8121
13.8785
13.9297
13.9664
13.9889
13.9981
13.9946
13.9789
13.9517
13.9139
13.8659
13.8085
13.7425
13.6684
13.5869
13.4988
13.4046
13.3051
13.2008
13.0924
12.9804
12.8655
12.7481
12.6288
12.5081
12.3865
12.2644
12.1423
12.0206
11.8996
11.7797
11.6613
11.5446
11.4299
11.3174
11.2075
11.1002
10.9959
10.8946
10.7966
10.7018
10.6106
10.5229
10.4389
10.3585
10.282
10.2092
10.1404
10.0754
10.0143
9.95711
9.90386
9.85453
9.80912
9.76763
9.73006
9.69638
9.6666
9.64073
9.61869
9.59944
9.57555
9.5317
9.80788
2156.44
-445.489
-105.946
-11.3044
0.970428
2.64631
3.51157
4.22618
4.84078
5.40297
5.93915
6.45886
6.96453
7.45626
7.93343
8.3953
8.84108
9.2701
9.68173
10.0755
10.4509
10.8077
11.1457
11.4646
11.7643
12.0448
12.3061
12.5482
12.7714
12.9756
13.1612
13.3284
13.4775
13.6089
13.723
13.8201
13.9009
13.9657
14.0152
14.0499
14.0704
14.0773
14.0714
14.0532
14.0235
13.9829
13.9321
13.8718
13.8028
13.7257
13.6411
13.5499
13.4526
13.3498
13.2424
13.1307
13.0155
12.8974
12.7768
12.6544
12.5306
12.4059
12.2808
12.1557
12.0311
11.9072
11.7845
11.6634
11.544
11.4267
11.3118
11.1994
11.0898
10.9833
10.8798
10.7797
10.683
10.5899
10.5004
10.4147
10.3328
10.2547
10.1805
10.1103
10.0441
9.98188
9.92366
9.86945
9.81925
9.77307
9.73089
9.69271
9.65852
9.62832
9.6021
9.57979
9.56036
9.53693
9.4968
9.75927
2156.44
-445.483
-105.935
-11.2884
0.990891
2.67119
3.54079
4.25963
4.87835
5.44454
5.98458
6.508
7.01723
7.51233
7.9927
8.45757
8.90616
9.33778
9.7518
10.1477
10.5251
10.8836
11.2231
11.5432
11.8439
12.1252
12.3871
12.6295
12.8527
13.0569
13.2421
13.4088
13.5571
13.6875
13.8004
13.8962
13.9753
14.0385
14.086
14.1187
14.137
14.1416
14.1332
14.1125
14.0801
14.0367
13.983
13.9199
13.8478
13.7676
13.68
13.5856
13.4851
13.3792
13.2685
13.1537
13.0353
12.914
12.7903
12.6647
12.5378
12.4101
12.282
12.154
12.0264
11.8998
11.7743
11.6505
11.5285
11.4087
11.2913
11.1766
11.0647
10.9559
10.8504
10.7483
10.6496
10.5547
10.4635
10.3761
10.2926
10.213
10.1375
10.066
9.99859
9.93525
9.87601
9.82087
9.76983
9.72289
9.68005
9.64129
9.60661
9.576
9.54946
9.52689
9.5073
9.48431
9.44742
9.69693
2156.44
-445.477
-105.924
-11.2742
1.009
2.6932
3.56661
4.28918
4.91153
5.48122
6.02463
6.55129
7.06359
7.56161
8.04473
8.51217
8.96314
9.39693
9.81293
10.2106
10.5896
10.9495
11.29
11.6111
11.9125
12.1943
12.4564
12.6989
12.9219
13.1257
13.3103
13.4762
13.6235
13.7528
13.8643
13.9585
14.036
14.0973
14.1428
14.1733
14.1893
14.1915
14.1806
14.1572
14.122
14.0758
14.0193
13.9531
13.8781
13.7948
13.704
13.6065
13.5028
13.3938
13.2799
13.1619
13.0403
12.9159
12.789
12.6604
12.5304
12.3997
12.2686
12.1377
12.0073
11.8779
11.7498
11.6233
11.4987
11.3764
11.2566
11.1396
11.0255
10.9145
10.8069
10.7028
10.6023
10.5056
10.4126
10.3236
10.2386
10.1577
10.0808
10.008
9.93944
9.87503
9.8148
9.75875
9.7069
9.65924
9.61575
9.57644
9.54128
9.51028
9.48343
9.46063
9.44091
9.41833
9.38427
9.62151
2156.45
-445.471
-105.916
-11.2619
1.02483
2.71242
3.58916
4.31497
4.94045
5.51317
6.05949
6.58891
7.10384
7.60434
8.08977
8.55935
9.01229
9.44786
9.86546
10.2646
10.6447
11.0056
11.347
11.6686
11.9704
12.2524
12.5145
12.7568
12.9794
13.1825
13.3663
13.5312
13.6774
13.8052
13.9152
14.0078
14.0834
14.1426
14.1861
14.2143
14.2279
14.2276
14.2141
14.188
14.15
14.1009
14.0414
13.9723
13.8942
13.8078
13.7139
13.6132
13.5064
13.3942
13.2771
13.1559
13.0313
12.9037
12.7737
12.642
12.5091
12.3754
12.2414
12.1076
11.9744
11.8423
11.7115
11.5824
11.4553
11.3306
11.2084
11.0891
10.9728
10.8598
10.7502
10.6441
10.5418
10.4433
10.3487
10.2581
10.1716
10.0892
10.011
9.93706
9.86734
9.80188
9.74068
9.68377
9.63113
9.58276
9.53865
9.4988
9.46319
9.43182
9.40467
9.38166
9.36182
9.33965
9.30807
9.53365
2156.45
-445.467
-105.908
-11.2512
1.03846
2.72897
3.60856
4.33713
4.96528
5.54057
6.08933
6.62109
7.13821
7.64075
8.12808
8.5994
9.05391
9.49089
9.90971
10.3098
10.6909
11.0524
11.3942
11.7162
12.0181
12.2999
12.5618
12.8036
13.0255
13.2278
13.4106
13.5743
13.7191
13.8454
13.9537
14.0444
14.1181
14.1752
14.2164
14.2422
14.2534
14.2505
14.2342
14.2054
14.1646
14.1126
14.0501
13.9779
13.8967
13.8073
13.7103
13.6064
13.4965
13.3811
13.2609
13.1365
13.0087
12.8781
12.7451
12.6103
12.4744
12.3378
12.2009
12.0643
11.9284
11.7935
11.6601
11.5285
11.399
11.2718
11.1474
11.0258
10.9074
10.7923
10.6807
10.5728
10.4686
10.3684
10.2722
10.1801
10.0921
10.0084
9.92894
9.85378
9.78296
9.71648
9.65436
9.5966
9.54319
9.49414
9.44944
9.40907
9.37303
9.3413
9.31387
9.29066
9.27073
9.24895
9.21955
9.43404
2156.45
-445.463
-105.901
-11.2422
1.04999
2.74295
3.62493
4.35581
4.98618
5.56359
6.11438
6.64803
7.16693
7.67111
8.15994
8.63261
9.08831
9.52632
9.94601
10.3468
10.7284
11.0903
11.4323
11.7542
12.056
12.3374
12.5987
12.8398
13.0609
13.2621
13.4437
13.606
13.7492
13.8739
13.9803
14.0691
14.1406
14.1955
14.2343
14.2577
14.2663
14.2607
14.2418
14.2101
14.1664
14.1114
14.046
13.9707
13.8865
13.7939
13.6938
13.5868
13.4737
13.3551
13.2318
13.1044
12.9735
12.8397
12.7037
12.566
12.4271
12.2876
12.148
12.0086
11.8699
11.7324
11.5965
11.4623
11.3304
11.2009
11.0742
10.9504
10.8299
10.7128
10.5993
10.4895
10.3836
10.2817
10.1839
10.0903
10.001
9.91591
9.83521
9.75891
9.68701
9.61955
9.55652
9.49794
9.4438
9.39409
9.34881
9.30795
9.27148
9.23942
9.21173
9.18833
9.16832
9.14691
9.11945
9.32337
2156.45
-445.46
-105.896
-11.2347
1.0595
2.75447
3.63839
4.37115
5.00332
5.58244
6.13483
6.66997
7.19025
7.69568
8.18563
8.65927
9.11581
9.55451
9.97473
10.3759
10.7577
11.1196
11.4615
11.7832
12.0844
12.3653
12.6258
12.866
13.0859
13.2859
13.4661
13.6268
13.7684
13.8912
13.9956
14.0823
14.1516
14.2041
14.2405
14.2613
14.2673
14.259
14.2372
14.2027
14.1561
14.0982
14.0297
13.9514
13.864
13.7683
13.6651
13.555
13.4387
13.3171
13.1906
13.0601
12.9262
12.7894
12.6504
12.5097
12.368
12.2256
12.0832
11.9411
11.7998
11.6597
11.5212
11.3846
11.2503
11.1185
10.9896
10.8637
10.7411
10.6221
10.5067
10.3951
10.2875
10.184
10.0846
9.98956
9.89882
9.81248
9.73058
9.65315
9.58022
9.5118
9.4479
9.38852
9.33367
9.28332
9.23749
9.19614
9.15928
9.12689
9.09895
9.07537
9.0553
9.03426
9.00853
9.20236
2156.45
-445.457
-105.892
-11.2288
1.06708
2.76364
3.64909
4.38332
5.01688
5.59729
6.15089
6.68714
7.20841
7.71473
8.20543
8.6797
9.13673
9.57578
9.99621
10.3975
10.7791
11.1408
11.4823
11.8034
12.104
12.3841
12.6435
12.8825
13.1012
13.2997
13.4783
13.6373
13.777
13.8978
14.0002
14.0846
14.1516
14.2017
14.2355
14.2538
14.257
14.246
14.2213
14.1839
14.1343
14.0734
14.0019
13.9205
13.83
13.7313
13.6249
13.5117
13.3923
13.2675
13.138
13.0045
12.8675
12.7277
12.5858
12.4422
12.2976
12.1525
12.0073
11.8625
11.7186
11.576
11.435
11.296
11.1594
11.0254
10.8943
10.7663
10.6418
10.5208
10.4036
10.2902
10.181
10.0758
9.975
9.87851
9.78644
9.69884
9.61577
9.53725
9.46331
9.39396
9.32922
9.26907
9.21352
9.16257
9.1162
9.07439
9.03715
9.00444
8.97627
8.95253
8.9324
8.91171
8.88753
9.07171
2156.45
-445.455
-105.889
-11.2243
1.07283
2.77058
3.65716
4.39246
5.02701
5.60835
6.16278
6.69977
7.22168
7.72852
8.21964
8.6942
9.1514
9.59049
10.0108
10.4119
10.7932
11.1544
11.4952
11.8155
12.1152
12.3941
12.6524
12.89
13.1072
13.3041
13.4809
13.638
13.7757
13.8945
13.9946
14.0767
14.1412
14.1888
14.2201
14.2356
14.2361
14.2222
14.1947
14.1543
14.1018
14.0378
13.9633
13.8788
13.7853
13.6834
13.5739
13.4576
13.3352
13.2073
13.0748
12.9382
12.7982
12.6555
12.5107
12.3643
12.2169
12.069
11.9211
11.7737
11.6272
11.4821
11.3387
11.1974
11.0585
10.9223
10.7891
10.6591
10.5326
10.4097
10.2907
10.1756
10.0647
9.95809
9.85578
9.75791
9.66454
9.57573
9.49152
9.41195
9.33703
9.26678
9.20121
9.14032
9.08411
9.03256
8.98567
8.94343
8.90581
8.87281
8.84442
8.82052
8.80034
8.77999
8.75722
8.93217
2156.45
-445.454
-105.886
-11.2211
1.07684
2.77539
3.66273
4.39873
5.03392
5.61582
6.17073
6.70811
7.23031
7.73735
8.22855
8.70309
9.16015
9.59899
10.0189
10.4195
10.8001
11.1606
11.5005
11.8198
12.1183
12.396
12.6528
12.8889
13.1044
13.2995
13.4745
13.6296
13.7652
13.8816
13.9795
14.0591
14.1212
14.1662
14.1947
14.2075
14.2052
14.1884
14.158
14.1147
14.0591
13.9921
13.9145
13.827
13.7304
13.6254
13.5129
13.3935
13.268
13.1371
13.0015
12.862
12.7191
12.5735
12.4258
12.2765
12.1264
11.9758
11.8253
11.6753
11.5263
11.3788
11.233
11.0894
10.9483
10.8099
10.6746
10.5427
10.4143
10.2896
10.1688
10.0521
9.93961
9.83145
9.72773
9.62851
9.53388
9.44389
9.35858
9.27798
9.20211
9.13099
9.06463
9.00302
8.94616
8.89404
8.84665
8.80398
8.76601
8.73273
8.70412
8.68008
8.65987
8.63985
8.61835
8.78445
2156.45
-445.453
-105.885
-11.2192
1.07921
2.77821
3.66595
4.40229
5.03777
5.61989
6.17494
6.71239
7.23456
7.74148
8.23247
8.7067
9.16334
9.60163
10.0209
10.4207
10.8005
11.1599
11.4988
11.8168
12.1139
12.3901
12.6454
12.8798
13.0935
13.2866
13.4595
13.6125
13.7458
13.86
13.9554
14.0325
14.092
14.1343
14.1601
14.1701
14.1649
14.1453
14.1119
14.0656
14.007
13.937
13.8563
13.7658
13.6661
13.558
13.4424
13.32
13.1915
13.0576
12.9191
12.7766
12.6308
12.4823
12.3318
12.1798
12.0269
11.8737
11.7206
11.5681
11.4167
11.2667
11.1186
10.9728
10.8295
10.6891
10.5518
10.4179
10.2876
10.1611
10.0386
9.92033
9.8063
9.69669
9.59158
9.49106
9.39521
9.30407
9.21768
9.13609
9.05931
8.98734
8.92021
8.85791
8.80042
8.74775
8.69988
8.6568
8.61849
8.58494
8.55612
8.53195
8.51171
8.49201
8.47166
8.6293
2156.45
-445.453
-105.884
-11.2185
1.08003
2.77914
3.66695
4.40331
5.03875
5.62077
6.17565
6.71285
7.23471
7.74122
8.2317
8.70533
9.16128
9.59878
10.0172
10.416
10.7946
11.1528
11.4903
11.807
12.1025
12.3771
12.6306
12.8631
13.0748
13.2659
13.4366
13.5873
13.7183
13.83
13.9229
13.9975
14.0542
14.0938
14.1169
14.124
14.116
14.0934
14.0571
14.0078
13.9462
13.8731
13.7894
13.6958
13.5931
13.482
13.3633
13.2379
13.1064
12.9695
12.8281
12.6827
12.534
12.3827
12.2294
12.0747
11.9192
11.7634
11.6078
11.4528
11.299
11.1467
10.9964
10.8483
10.7029
10.5604
10.4212
10.2854
10.1533
10.0251
9.90099
9.7811
9.66557
9.55453
9.44808
9.3463
9.24926
9.157
9.06958
8.98702
8.90935
8.83657
8.76869
8.70572
8.64763
8.59443
8.54609
8.50262
8.46398
8.43017
8.40116
8.37686
8.35659
8.3372
8.31791
8.46745
2156.45
-445.453
-105.885
-11.219
1.07941
2.77831
3.66587
4.40195
5.03704
5.61866
6.17308
6.70975
7.231
7.73682
8.22654
8.69932
9.15432
9.59079
10.0081
10.4056
10.783
11.1397
11.4757
11.7907
12.0846
12.3573
12.6089
12.8394
13.049
13.2379
13.4064
13.5547
13.6832
13.7924
13.8827
13.9546
14.0086
14.0455
14.0657
14.07
14.059
14.0335
13.9942
13.9419
13.8773
13.8012
13.7145
13.6178
13.512
13.3979
13.2763
13.1479
13.0134
12.8736
12.7293
12.581
12.4295
12.2755
12.1195
11.9622
11.804
11.6456
11.4875
11.3302
11.174
11.0194
10.8669
10.7167
10.5693
10.4248
10.2836
10.146
10.0122
9.88228
9.75655
9.63513
9.51815
9.40573
9.29798
9.19497
9.09677
9.00344
8.91501
8.83152
8.75298
8.67941
8.61081
8.54718
8.48852
8.4348
8.38602
8.34216
8.30321
8.26915
8.23996
8.21554
8.19525
8.17615
8.15783
8.29961
2156.45
-445.454
-105.886
-11.2205
1.07743
2.77583
3.66286
4.39835
5.03282
5.61376
6.16745
6.70331
7.2237
7.72858
8.21729
8.68898
9.14281
9.57802
9.99395
10.3901
10.7659
11.1211
11.4553
11.7685
12.0605
12.3312
12.5808
12.8091
13.0165
13.2031
13.3692
13.5151
13.6411
13.7477
13.8353
13.9045
13.9558
13.9898
14.0072
14.0085
13.9946
13.9662
13.9239
13.8686
13.801
13.7219
13.6321
13.5324
13.4237
13.3066
13.182
13.0506
12.9132
12.7706
12.6234
12.4723
12.3181
12.1613
12.0027
11.8427
11.6821
11.5212
11.3607
11.2009
11.0425
10.8857
10.731
10.5787
10.4293
10.2829
10.1399
10.0004
9.86488
9.73336
9.60606
9.48315
9.36476
9.25101
9.14199
9.03779
8.93847
8.84409
8.75469
8.67029
8.59092
8.51659
8.44729
8.38303
8.3238
8.26959
8.22038
8.17615
8.1369
8.1026
8.07323
8.04871
8.0284
8.00958
7.99214
8.1265
2156.45
-445.455
-105.887
-11.223
1.0742
2.77182
3.65804
4.39269
5.02627
5.60627
6.15897
6.69379
7.21307
7.71678
8.20425
8.67462
9.12706
9.56081
9.9752
10.3697
10.7438
11.0972
11.4296
11.7409
12.0308
12.2994
12.5468
12.7729
12.9779
13.1621
13.3257
13.4691
13.5925
13.6964
13.7813
13.8478
13.8962
13.9274
13.9419
13.9403
13.9235
13.8921
13.8468
13.7885
13.7179
13.6358
13.5431
13.4404
13.3287
13.2086
13.0811
12.9468
12.8066
12.6611
12.5111
12.3573
12.2003
12.0409
11.8797
11.7172
11.554
11.3907
11.2278
11.0658
10.9051
10.7462
10.5894
10.4351
10.2837
10.1354
9.99055
9.8494
9.71217
9.57906
9.45025
9.32589
9.20613
9.09108
8.98083
8.87548
8.77508
8.67968
8.58934
8.50406
8.42389
8.34881
8.27884
8.21398
8.1542
8.09951
8.04988
8.00531
7.96576
7.93123
7.9017
7.87706
7.85675
7.83819
7.82157
7.94882
2156.45
-445.456
-105.89
-11.2264
1.0698
2.7664
3.65156
4.38512
5.01757
5.5964
6.14787
6.68142
7.19936
7.70169
8.1877
8.65656
9.10742
9.53951
9.95218
10.3449
10.7171
11.0686
11.399
11.7081
11.9959
12.2624
12.5074
12.7311
12.9338
13.1155
13.2765
13.4172
13.538
13.6392
13.7214
13.785
13.8306
13.8589
13.8705
13.866
13.8462
13.8119
13.7636
13.7023
13.6288
13.5437
13.448
13.3424
13.2277
13.1048
12.9743
12.8372
12.6941
12.5458
12.3931
12.2366
12.077
11.915
11.7512
11.5862
11.4206
11.2549
11.0897
10.9255
10.7626
10.6015
10.4427
10.2865
10.1331
9.98302
9.83642
9.69359
9.55474
9.42009
9.2898
9.16405
9.04296
8.92665
8.81521
8.70874
8.60729
8.51091
8.41965
8.33353
8.25258
8.17679
8.10616
8.04071
7.98041
7.92526
7.87523
7.83031
7.79049
7.75574
7.72604
7.70131
7.68098
7.66268
7.64681
7.76726
2156.45
-445.458
-105.893
-11.2306
1.06434
2.75968
3.64355
4.37579
5.00689
5.58432
6.13436
6.66642
7.18283
7.68357
8.16795
8.6351
9.0842
9.51447
9.92526
10.316
10.6862
11.0356
11.3639
11.6708
11.9564
12.2204
12.4631
12.6844
12.8845
13.0636
13.222
13.3601
13.4781
13.5766
13.6559
13.7167
13.7595
13.7849
13.7936
13.7862
13.7635
13.7261
13.6749
13.6107
13.5342
13.4462
13.3475
13.239
13.1214
12.9956
12.8623
12.7224
12.5765
12.4255
12.2701
12.1109
11.9487
11.7842
11.6179
11.4505
11.2825
11.1145
10.9471
10.7806
10.6156
10.4525
10.2917
10.1335
9.97836
9.82647
9.67817
9.53369
9.39328
9.25713
9.12542
8.99831
8.87593
8.7584
8.64581
8.53826
8.43579
8.33847
8.24632
8.15939
8.07767
8.00119
7.92994
7.86392
7.80311
7.74751
7.6971
7.65185
7.61176
7.57679
7.54694
7.52211
7.50178
7.48372
7.46853
7.58249
2156.45
-445.46
-105.896
-11.2356
1.0579
2.75176
3.63414
4.36485
4.99439
5.57023
6.11864
6.64903
7.16372
7.6627
8.14526
8.61055
9.05773
9.48602
9.89478
10.2834
10.6515
10.9987
11.3247
11.6293
11.9125
12.1741
12.4143
12.633
12.8306
13.0071
13.1628
13.2982
13.4134
13.5091
13.5857
13.6436
13.6835
13.706
13.7118
13.7015
13.6758
13.6355
13.5814
13.5142
13.4348
13.3438
13.2423
13.1309
13.0105
12.8818
12.7458
12.603
12.4545
12.3008
12.1427
11.981
11.8162
11.6492
11.4805
11.3107
11.1404
10.9702
10.8005
10.6319
10.4649
10.2998
10.137
9.977
9.82003
9.66642
9.51646
9.3704
9.22846
9.09086
8.95777
8.82934
8.70571
8.587
8.4733
8.3647
8.26125
8.16301
8.07001
7.98228
7.89984
7.82269
7.75083
7.68426
7.62296
7.56693
7.51614
7.47058
7.43023
7.39506
7.36506
7.34013
7.31979
7.30196
7.28741
7.39516
2156.45
-445.463
-105.9
-11.2412
1.05058
2.74277
3.62346
4.35246
4.98026
5.55433
6.10092
6.62947
7.14228
7.63933
8.11992
8.58319
9.0283
9.45449
9.86108
10.2475
10.6133
10.9582
11.2818
11.5841
11.8648
12.1239
12.3615
12.5776
12.7725
12.9464
13.0994
13.232
13.3445
13.4373
13.511
13.5661
13.6031
13.6228
13.6256
13.6124
13.5838
13.5406
13.4836
13.4135
13.3311
13.2373
13.1329
13.0187
12.8955
12.764
12.6252
12.4798
12.3286
12.1723
12.0116
11.8473
11.6801
11.5107
11.3396
11.1675
10.9949
10.8225
10.6507
10.4801
10.311
10.144
9.97935
9.81751
9.65879
9.50351
9.35194
9.20434
9.06093
8.92192
8.78749
8.65779
8.53296
8.41311
8.29833
8.18871
8.08431
7.98518
7.89136
7.80286
7.71972
7.64192
7.56947
7.50237
7.44061
7.38416
7.33301
7.28714
7.24654
7.21117
7.18103
7.15601
7.13567
7.11805
7.10408
7.2059
2156.45
-445.465
-105.905
-11.2475
1.04245
2.7328
3.61163
4.33875
4.96464
5.53678
6.08141
6.60796
7.11873
7.61371
8.09219
8.55332
8.99624
9.42019
9.8245
10.2086
10.5721
10.9145
11.2357
11.5354
11.8136
12.0701
12.3051
12.5186
12.7108
12.8819
13.0322
13.162
13.2717
13.3617
13.4326
13.4848
13.5189
13.5357
13.5356
13.5195
13.488
13.4419
13.382
13.3091
13.2239
13.1272
13.02
12.903
12.777
12.6429
12.5014
12.3533
12.1994
12.0406
11.8774
11.7107
11.541
11.3692
11.1958
11.0214
10.8467
10.6722
10.4983
10.3256
10.1546
9.98571
9.81926
9.65567
9.49527
9.33836
9.18524
9.03615
8.89131
8.75095
8.61522
8.48429
8.35829
8.23733
8.12152
8.01092
7.9056
7.80561
7.71099
7.62176
7.53793
7.45951
7.3865
7.31889
7.25666
7.19981
7.14832
7.10215
7.0613
7.02575
6.99546
6.97037
6.95001
6.9326
6.91917
7.01533
2156.45
-445.468
-105.91
-11.2544
1.0336
2.72196
3.59878
4.32386
4.9477
5.51776
6.06028
6.5847
7.09331
7.58609
8.06234
8.5212
8.96181
9.38342
9.78536
10.1671
10.5281
10.868
11.1867
11.4838
11.7594
12.0133
12.2456
12.4564
12.6459
12.8143
12.9618
13.0888
13.1956
13.2828
13.3508
13.4002
13.4315
13.4453
13.4424
13.4234
13.389
13.3401
13.2773
13.2015
13.1135
13.0141
12.9041
12.7844
12.6557
12.5189
12.3747
12.2241
12.0677
11.9063
11.7407
11.5715
11.3995
11.2254
11.0498
10.8732
10.6963
10.5197
10.3439
10.1692
9.99635
9.8256
9.65739
9.4921
9.33006
9.17159
9.01696
8.86642
8.72022
8.57853
8.44155
8.30943
8.18231
8.06028
7.94346
7.83192
7.72572
7.6249
7.52951
7.43956
7.35507
7.27605
7.20249
7.13439
7.07172
7.01448
6.96265
6.9162
6.87512
6.83938
6.80896
6.78378
6.76342
6.74621
6.73326
6.82403
2156.44
-445.471
-105.915
-11.2618
1.02412
2.71035
3.58502
4.30794
4.92959
5.49744
6.03774
6.5599
7.06623
7.5567
8.03061
8.4871
8.92532
9.3445
9.74397
10.1232
10.4817
10.8191
11.1351
11.4297
11.7026
11.9538
12.1834
12.3915
12.5782
12.7438
12.8885
13.0127
13.1167
13.2011
13.2662
13.3127
13.3412
13.3522
13.3464
13.3245
13.2874
13.2356
13.17
13.0915
13.0007
12.8985
12.7858
12.6634
12.532
12.3926
12.2459
12.0927
11.9338
11.77
11.602
11.4305
11.2562
11.0799
10.902
10.7234
10.5444
10.3658
10.188
10.0115
9.83674
9.66422
9.49431
9.32738
9.16376
9.00377
8.84768
8.69575
8.54821
8.40526
8.26707
8.1338
8.00559
7.88253
7.76474
7.65229
7.54523
7.44361
7.34748
7.25684
7.17172
7.09212
7.01803
6.94945
6.88636
6.82875
6.77659
6.72987
6.68856
6.65264
6.62209
6.59683
6.57645
6.55942
6.54692
6.63256
2156.44
-445.475
-105.921
-11.2695
1.01409
2.69805
3.57046
4.2911
4.91046
5.47599
6.01395
6.53376
7.03771
7.52577
7.99726
8.45129
8.88703
9.3037
9.70064
10.0773
10.4332
10.768
11.0814
11.3732
11.6435
11.892
12.1189
12.3242
12.5081
12.6709
12.8128
12.9342
13.0354
13.117
13.1793
13.223
13.2486
13.2567
13.2481
13.2235
13.1835
13.129
13.0606
12.9793
12.8858
12.781
12.6656
12.5406
12.4066
12.2647
12.1154
11.9598
11.7985
11.6323
11.4619
11.2882
11.1117
10.9331
10.7532
10.5724
10.3915
10.2109
10.0312
9.85287
9.67637
9.50214
9.33058
9.16206
8.99691
8.83545
8.67796
8.52468
8.37586
8.23168
8.09232
7.95794
7.82868
7.70463
7.5859
7.47257
7.36468
7.2623
7.16545
7.07415
6.98842
6.90825
6.83366
6.76462
6.70112
6.64314
6.59067
6.54368
6.50215
6.46606
6.43538
6.41004
6.38966
6.3728
6.3607
6.44145
2156.44
-445.478
-105.926
-11.2777
1.00357
2.68518
3.55521
4.27347
4.89043
5.45356
5.98909
6.50645
7.00794
7.49352
7.9625
8.41401
8.8472
9.2613
9.65564
10.0297
10.3829
10.7151
11.0258
11.315
11.5825
11.8283
12.0524
12.255
12.4361
12.5961
12.7352
12.8538
12.9522
13.0309
13.0904
13.1313
13.1541
13.1595
13.1481
13.1207
13.078
13.0207
12.9497
12.8657
12.7695
12.662
12.5441
12.4164
12.28
12.1355
11.9839
11.8258
11.6621
11.4936
11.321
11.145
10.9664
10.7857
10.6037
10.421
10.2381
10.0556
9.87407
9.69396
9.51576
9.33988
9.16672
8.99666
8.83004
8.66717
8.50831
8.35374
8.20367
8.05831
7.91783
7.78238
7.6521
7.5271
7.40747
7.29329
7.18461
7.08148
6.98394
6.892
6.80568
6.72497
6.64989
6.5804
6.51651
6.45818
6.40541
6.35816
6.31642
6.28016
6.24936
6.22394
6.20355
6.18685
6.17512
6.25121
2156.44
-445.482
-105.933
-11.2862
0.992638
2.6718
3.53938
4.25518
4.86966
5.4303
5.96333
6.47817
6.97712
7.46016
7.92657
8.37549
8.80607
9.21755
9.60926
9.98063
10.3312
10.6607
10.9687
11.2551
11.5199
11.7629
11.9843
12.1841
12.3625
12.5197
12.6561
12.7718
12.8675
12.9434
13.0001
13.0382
13.0583
13.0609
13.0468
13.0166
12.9712
12.9112
12.8375
12.7509
12.6522
12.5421
12.4216
12.2915
12.1526
12.0057
11.8516
11.6912
11.5253
11.3545
11.1797
11.0016
10.8208
10.6381
10.4541
10.2694
10.0847
9.90038
9.71708
9.53527
9.3554
9.17793
9.00323
8.8317
8.66365
8.49941
8.33925
8.18342
8.03216
7.88566
7.74409
7.60762
7.47636
7.35044
7.22994
7.11494
7.00549
6.90165
6.80344
6.71089
6.624
6.54277
6.46721
6.3973
6.33302
6.27436
6.22129
6.1738
6.13185
6.09543
6.0645
6.03901
6.01861
6.00205
5.99066
6.06233
2156.44
-445.486
-105.939
-11.295
0.981369
2.65801
3.52307
4.23633
4.84827
5.40635
5.93682
6.44908
6.94545
7.42588
7.88967
8.33596
8.7639
9.17272
9.56175
9.93044
10.2783
10.6051
10.9104
11.1941
11.4561
11.6964
11.915
12.1121
12.2877
12.4421
12.5757
12.6887
12.7816
12.8548
12.9088
12.9441
12.9614
12.9613
12.9445
12.9117
12.8636
12.801
12.7247
12.6355
12.5342
12.4217
12.2987
12.1662
12.0248
11.8756
11.7192
11.5566
11.3884
11.2154
11.0385
10.8583
10.6755
10.4908
10.3049
10.1184
9.93178
9.74572
9.56071
9.37724
9.19578
9.01677
8.84059
8.66763
8.49821
8.33265
8.17123
8.0142
7.86179
7.71419
7.57158
7.43411
7.30192
7.17511
7.05377
6.93798
6.8278
6.72327
6.62442
6.53127
6.44383
6.36211
6.28609
6.21577
6.15112
6.09214
6.03879
5.99105
5.9489
5.91232
5.88128
5.85571
5.83529
5.81887
5.80779
5.87526
2156.44
-445.49
-105.945
-11.3039
0.969824
2.64389
3.50637
4.21703
4.82638
5.38185
5.90971
6.41935
6.91308
7.39087
7.85201
8.29563
8.7209
9.12704
9.51338
9.87936
10.2245
10.5485
10.8511
11.1321
11.3914
11.629
11.8448
12.0391
12.212
12.3637
12.4945
12.6048
12.6949
12.7654
12.8167
12.8494
12.864
12.8612
12.8418
12.8064
12.7557
12.6905
12.6117
12.52
12.4162
12.3012
12.1758
12.0409
11.8972
11.7457
11.5871
11.4222
11.2519
11.0768
10.8978
10.7156
10.5309
10.3443
10.1565
9.96814
9.77981
9.59205
9.4054
9.22034
9.03734
8.85684
8.67924
8.5049
8.33416
8.16734
8.0047
7.84651
7.69299
7.54434
7.40072
7.2623
7.12921
7.00154
6.8794
6.76286
6.65197
6.54677
6.44731
6.35359
6.26563
6.18342
6.10696
6.03624
5.97124
5.91194
5.85831
5.81034
5.768
5.73127
5.70011
5.67446
5.65403
5.63774
5.62694
5.69041
2156.44
-445.493
-105.952
-11.3131
0.958065
2.62951
3.48936
4.19739
4.80411
5.35694
5.88214
6.38913
6.88019
7.35531
7.81377
8.25471
8.67729
9.08073
9.46436
9.82764
10.1701
10.4914
10.7913
11.0695
11.3261
11.5609
11.774
11.9656
12.1358
12.2848
12.4129
12.5204
12.6079
12.6757
12.7243
12.7543
12.7663
12.761
12.739
12.701
12.6478
12.5801
12.4988
12.4046
12.2984
12.1811
12.0533
11.9161
11.7702
11.6164
11.4556
11.2886
11.1162
10.9391
10.7581
10.574
10.3873
10.1989
10.0093
9.81922
9.6292
9.4398
9.25156
9.06497
8.8805
8.69857
8.51959
8.34393
8.17192
8.00388
7.84008
7.68077
7.52619
7.37652
7.23194
7.09261
6.95864
6.83016
6.70724
6.58997
6.4784
6.37257
6.27251
6.17825
6.08978
6.0071
5.93022
5.85912
5.79377
5.73417
5.68028
5.63209
5.58956
5.55267
5.5214
5.49568
5.47523
5.45905
5.4485
5.50819
2156.44
-445.497
-105.958
-11.3223
0.946152
2.61494
3.47213
4.17751
4.78155
5.33172
5.85425
6.35856
6.84694
7.31937
7.77514
8.21339
8.63327
9.03401
9.41494
9.7755
10.1152
10.4338
10.731
11.0065
11.2604
11.4925
11.7029
11.8918
12.0593
12.2056
12.3311
12.436
12.5208
12.5859
12.632
12.6594
12.6688
12.6609
12.6364
12.5959
12.5402
12.4701
12.3864
12.2898
12.1813
12.0616
11.9316
11.7922
11.6441
11.4882
11.3253
11.1562
10.9817
10.8027
10.6198
10.4337
10.2453
10.0551
9.86376
9.67198
9.48033
9.28936
9.09959
8.91153
8.72563
8.54234
8.36204
8.1851
8.01188
7.84267
7.67775
7.51737
7.36176
7.21112
7.06561
6.9254
6.7906
6.66133
6.53768
6.41971
6.30748
6.20104
6.10041
6.00562
5.91666
5.83354
5.75625
5.68478
5.61911
5.55921
5.50507
5.45665
5.41394
5.37691
5.34553
5.31973
5.29926
5.28319
5.27286
5.32897
2156.43
-445.501
-105.965
-11.3317
0.934139
2.60026
3.45477
4.15747
4.75883
5.30631
5.82616
6.32778
6.81348
7.28322
7.73629
8.17185
8.58903
8.98707
9.3653
9.72317
10.0602
10.3761
10.6706
10.9434
11.1946
11.4241
11.6318
11.818
11.9829
12.1266
12.2494
12.3517
12.4339
12.4965
12.54
12.5648
12.5718
12.5614
12.5344
12.4914
12.4334
12.3609
12.2748
12.176
12.0652
11.9433
11.8111
11.6694
11.5192
11.3612
11.1963
11.0253
10.8489
10.6679
10.4831
10.2953
10.1051
9.91314
9.72017
9.52679
9.33357
9.14109
8.94986
8.76038
8.57311
8.3885
8.20693
8.02878
7.85438
7.68405
7.51806
7.35665
7.20007
7.04849
6.9021
6.76104
6.62544
6.49542
6.37105
6.25241
6.13956
6.03253
5.93136
5.83605
5.74663
5.66308
5.5854
5.51357
5.44758
5.3874
5.33301
5.28439
5.2415
5.20432
5.17283
5.14697
5.12647
5.11049
5.10037
5.15308
2156.43
-445.505
-105.972
-11.3411
0.922077
2.58551
3.43734
4.13735
4.73603
5.28083
5.79799
6.29692
6.77993
7.24699
7.69738
8.13025
8.54474
8.9401
9.31566
9.67085
10.0052
10.3185
10.6103
10.8805
11.129
11.3558
11.561
11.7446
11.9068
12.0479
12.1681
12.2679
12.3476
12.4076
12.4486
12.471
12.4755
12.4627
12.4333
12.388
12.3276
12.2528
12.1644
12.0634
11.9504
11.8263
11.692
11.5483
11.396
11.236
11.0691
10.8961
10.7179
10.5351
10.3485
10.1589
9.96703
9.77347
9.57891
9.38398
9.18926
8.99532
8.80268
8.61184
8.42327
8.23739
8.05461
7.87529
7.69977
7.52837
7.36134
7.19896
7.04143
6.88896
6.74172
6.59985
6.46349
6.33274
6.20769
6.08841
5.97496
5.86736
5.76567
5.66988
5.58
5.49604
5.41798
5.34582
5.27952
5.21907
5.16444
5.11561
5.07255
5.03523
5.00364
4.9777
4.95718
4.94128
4.93134
4.98084
2156.43
-445.509
-105.978
-11.3504
0.910014
2.57077
3.41991
4.11725
4.71325
5.25536
5.76985
6.26611
6.74644
7.21082
7.65854
8.08875
8.50058
8.89328
9.26618
9.61873
9.95047
10.2611
10.5502
10.8178
11.0638
11.288
11.4905
11.6716
11.8313
11.9698
12.0875
12.1848
12.262
12.3196
12.3582
12.3782
12.3803
12.3651
12.3334
12.2858
12.2231
12.1461
12.0556
11.9523
11.8372
11.711
11.5747
11.4289
11.2747
11.1128
10.944
10.7692
10.5891
10.4046
10.2163
10.025
9.8315
9.63636
9.44027
9.24385
9.04769
8.85236
8.65838
8.46624
8.27641
8.08932
7.90538
7.72494
7.54835
7.37591
7.20791
7.04458
6.88615
6.73283
6.58477
6.44213
6.30504
6.1736
6.04789
5.928
5.81397
5.70584
5.60364
5.50738
5.41707
5.33272
5.2543
5.1818
5.11521
5.05449
4.99964
4.95061
4.90738
4.86993
4.83823
4.81222
4.79167
4.77585
4.76607
4.81254
2156.43
-445.513
-105.985
-11.3598
0.897996
2.55608
3.40256
4.09722
4.69056
5.23001
5.74184
6.23544
6.71312
7.17485
7.61993
8.04749
8.45669
8.84677
9.21705
9.56698
9.89612
10.2041
10.4907
10.7557
10.9991
11.2208
11.4208
11.5993
11.7565
11.8926
12.0079
12.1027
12.1775
12.2327
12.2689
12.2866
12.2864
12.2689
12.2349
12.1851
12.1203
12.0411
11.9484
11.8431
11.7259
11.5977
11.4594
11.3117
11.1556
10.9918
10.8212
10.6446
10.4628
10.2766
10.0867
9.89384
9.69874
9.50209
9.30454
9.1067
8.90916
8.71249
8.51722
8.32384
8.13281
7.94457
7.75951
7.57801
7.40039
7.22697
7.05802
6.89379
6.73451
6.58036
6.43153
6.28815
6.15036
6.01825
5.89193
5.77144
5.65686
5.54821
5.44553
5.34883
5.25811
5.17337
5.09461
5.02179
4.95492
4.89395
4.83887
4.78965
4.74626
4.70868
4.67687
4.65079
4.63021
4.61447
4.60482
4.64843
2156.43
-445.517
-105.992
-11.3691
0.886064
2.5415
3.38533
4.07735
4.66805
5.20486
5.71405
6.20502
6.68008
7.1392
7.58166
8.00662
8.41323
8.80071
9.16841
9.51578
9.84236
10.1478
10.4319
10.6944
10.9352
11.1544
11.352
11.5281
11.6828
11.8165
11.9294
12.0218
12.0943
12.1472
12.1811
12.1965
12.194
12.1744
12.1382
12.0863
12.0193
11.938
11.8433
11.736
11.6168
11.4867
11.3464
11.1969
11.039
10.8734
10.7011
10.5228
10.3393
10.1515
9.96
9.76561
9.56903
9.37093
9.17197
8.97277
8.77392
8.57598
8.37947
8.1849
7.99273
7.80338
7.61727
7.43474
7.25614
7.08178
6.91194
6.74685
6.58675
6.43182
6.28224
6.13816
5.9997
5.86696
5.74004
5.61899
5.50388
5.39474
5.2916
5.19447
5.10335
5.01825
4.93915
4.86603
4.79888
4.73767
4.68238
4.63297
4.58943
4.55172
4.51981
4.49366
4.47305
4.45736
4.44784
4.48874
2156.43
-445.521
-105.998
-11.3783
0.874255
2.52707
3.36828
4.05769
4.64578
5.17999
5.68658
6.17496
6.64743
7.10396
7.54386
7.96625
8.37031
8.75525
9.12042
9.46527
9.78934
10.0923
10.3739
10.6339
10.8723
11.0891
11.2843
11.458
11.6103
11.7417
11.8522
11.9424
12.0126
12.0632
12.0949
12.1081
12.1035
12.0817
12.0434
11.9894
11.9204
11.8371
11.7404
11.6312
11.5101
11.3781
11.2361
11.0848
10.9251
10.7578
10.5838
10.4039
10.2188
10.0294
9.83643
9.64058
9.44258
9.2431
9.0428
8.8423
8.6422
8.44304
8.24536
8.04966
7.85639
7.666
7.47886
7.29537
7.11584
6.94058
6.76988
6.60397
6.44309
6.28742
6.13713
5.99237
5.85327
5.71993
5.59244
5.47086
5.35524
5.24563
5.14205
5.04451
4.95301
4.86756
4.78814
4.71474
4.64733
4.58588
4.53038
4.48079
4.4371
4.39926
4.36725
4.34103
4.32039
4.30475
4.29534
4.3337
2156.43
-445.525
-106.005
-11.3873
0.862606
2.51284
3.35147
4.0383
4.62382
5.15547
5.6595
6.14533
6.61525
7.06925
7.50662
7.92651
8.32805
8.71051
9.0732
9.41558
9.73721
10.0377
10.3169
10.5745
10.8106
11.025
11.2178
11.3892
11.5392
11.6683
11.7766
11.8645
11.9325
11.981
12.0105
12.0216
12.0149
11.9911
11.9508
11.8947
11.8238
11.7386
11.64
11.5289
11.406
11.2722
11.1284
10.9754
10.814
10.6451
10.4696
10.2881
10.1015
9.91065
9.71622
9.51897
9.31961
9.11882
8.91724
8.71551
8.5142
8.31389
8.11509
7.91831
7.72401
7.53261
7.34451
7.16009
6.97967
6.80356
6.63205
6.46536
6.30373
6.14735
5.99639
5.85099
5.71129
5.57737
5.44933
5.32724
5.21114
5.10108
4.99708
4.89915
4.80729
4.72151
4.64178
4.5681
4.50043
4.43876
4.38306
4.3333
4.28946
4.2515
4.21939
4.1931
4.17243
4.15684
4.14752
4.18347
2156.43
-445.529
-106.011
-11.3962
0.851147
2.49884
3.33494
4.01924
4.60223
5.13136
5.63288
6.11621
6.58364
7.03516
7.47006
7.88748
8.28658
8.6666
9.02687
9.36685
9.68609
9.98424
10.2611
10.5164
10.7501
10.9622
11.1527
11.3218
11.4697
11.5965
11.7027
11.7885
11.8543
11.9007
11.9281
11.9372
11.9285
11.9027
11.8604
11.8025
11.7296
11.6426
11.5422
11.4293
11.3047
11.1692
11.0238
10.8691
10.7061
10.5357
10.3586
10.1756
9.98761
9.79534
9.59954
9.40096
9.20031
8.99827
8.79548
8.59257
8.39012
8.18871
7.98885
7.79105
7.59575
7.4034
7.21439
7.02909
6.84783
6.67091
6.49862
6.33119
6.16886
6.0118
5.8602
5.71419
5.57391
5.43944
5.31089
5.18831
5.07175
4.96126
4.85686
4.75855
4.66635
4.58025
4.50023
4.42628
4.35837
4.29648
4.24059
4.19067
4.14668
4.1086
4.0764
4.05003
4.02933
4.01377
4.00454
4.03823
2156.42
-445.533
-106.017
-11.405
0.839908
2.48511
3.31872
4.00055
4.58107
5.10773
5.6068
6.08768
6.55268
7.00177
7.43425
7.84927
8.24599
8.62363
8.98155
9.31919
9.6361
9.93195
10.2065
10.4595
10.691
10.9009
11.0892
11.2562
11.4019
11.5266
11.6306
11.7143
11.7781
11.8225
11.8479
11.855
11.8444
11.8167
11.7726
11.7128
11.6382
11.5494
11.4473
11.3326
11.2064
11.0693
10.9222
10.766
10.6015
10.4296
10.251
10.0667
9.87728
9.68366
9.48657
9.28673
9.08485
8.88162
8.67767
8.47365
8.27013
8.06767
7.8668
7.66802
7.47179
7.27854
7.08866
6.90252
6.72046
6.54278
6.36975
6.20162
6.03861
5.88092
5.72871
5.58212
5.44128
5.3063
5.17725
5.05421
4.93722
4.82632
4.72153
4.62287
4.53034
4.44393
4.36363
4.28942
4.22129
4.15919
4.10312
4.05303
4.0089
3.97071
3.93842
3.91198
3.89124
3.87572
3.86655
3.89812
2156.42
-445.537
-106.023
-11.4135
0.828916
2.47168
3.30287
3.98227
4.56037
5.08463
5.5813
6.0598
6.52242
6.96915
7.39928
7.81197
8.20636
8.5817
8.93733
9.27269
9.58735
9.88097
10.1533
10.4041
10.6334
10.8412
11.0274
11.1922
11.3359
11.4585
11.5605
11.6422
11.7041
11.7465
11.7701
11.7753
11.7628
11.7333
11.6874
11.6259
11.5495
11.459
11.3552
11.239
11.1112
10.9725
10.8239
10.6663
10.5003
10.327
10.147
9.96134
9.77065
9.57577
9.37745
9.17641
8.97337
8.76901
8.56398
8.35889
8.15435
7.9509
7.74908
7.54938
7.35226
7.15816
6.96745
6.78053
6.59771
6.4193
6.24557
6.07678
5.91313
5.75483
5.60204
5.45491
5.31355
5.17807
5.04856
4.92508
4.80767
4.69638
4.59123
4.49223
4.39939
4.31269
4.23212
4.15767
4.08931
4.02702
3.97076
3.92052
3.87626
3.83795
3.80557
3.77906
3.75828
3.74279
3.73368
3.76326
2156.42
-445.54
-106.029
-11.4219
0.818193
2.45859
3.28741
3.96445
4.5402
5.06212
5.55645
6.03262
6.49294
6.93737
7.36522
7.77564
8.16778
8.54088
8.89429
9.22746
9.53994
9.83139
10.1016
10.3503
10.5775
10.7832
10.9674
11.1302
11.2718
11.3925
11.4926
11.5724
11.6323
11.6729
11.6946
11.6981
11.6838
11.6525
11.605
11.5418
11.4638
11.3717
11.2663
11.1486
11.0192
10.8791
10.7291
10.57
10.4027
10.228
10.0468
9.8598
9.66788
9.4718
9.27231
9.07014
8.866
8.66057
8.45451
8.24843
8.04292
7.83854
7.63582
7.43525
7.23729
7.04237
6.8509
6.66322
6.47968
6.30059
6.1262
5.95678
5.79254
5.63366
5.48033
5.33267
5.19082
5.05488
4.92492
4.80102
4.68322
4.57156
4.46607
4.36674
4.2736
4.18662
4.1058
4.03111
3.96254
3.90006
3.84363
3.79324
3.74885
3.71043
3.67796
3.65139
3.63057
3.6151
3.60604
3.63375
2156.42
-445.544
-106.035
-11.43
0.807762
2.44585
3.27237
3.94711
4.52058
5.04022
5.5323
6.00621
6.46429
6.90649
7.33214
7.74036
8.13032
8.50126
8.85253
9.18357
9.49395
9.78332
10.0514
10.2981
10.5233
10.727
10.9092
11.0701
11.2098
11.3286
11.4268
11.5048
11.563
11.6018
11.6217
11.6235
11.6075
11.5746
11.5254
11.4606
11.3811
11.2875
11.1806
11.0614
10.9306
10.7891
10.6377
10.4773
10.3087
10.1328
9.95032
9.76215
9.56906
9.37185
9.17126
8.96802
8.76285
8.55642
8.34938
8.14236
7.93594
7.73068
7.52711
7.32572
7.12697
6.93129
6.73909
6.55071
6.36649
6.18675
6.01175
5.84173
5.67692
5.5175
5.36365
5.2155
5.07318
4.9368
4.80642
4.68212
4.56395
4.45194
4.34612
4.24649
4.15306
4.06582
3.98476
3.90985
3.84107
3.77841
3.72182
3.67128
3.62677
3.58825
3.55569
3.52905
3.50819
3.49274
3.48371
3.50967
2156.42
-445.547
-106.041
-11.4379
0.79764
2.43349
3.25777
3.9303
4.50155
5.01899
5.50887
5.98061
6.43652
6.87657
7.30008
7.70618
8.09404
8.4629
8.8121
9.1411
9.44945
9.73682
10.003
10.2477
10.471
10.6727
10.8531
11.0121
11.15
11.267
11.3634
11.4396
11.4961
11.5332
11.5515
11.5516
11.5341
11.4996
11.4489
11.3826
11.3015
11.2065
11.0982
10.9776
10.8455
10.7027
10.55
10.3884
10.2185
10.0414
9.85778
9.66848
9.4743
9.27603
9.0744
8.87016
8.66401
8.45664
8.24869
8.04078
7.8335
7.62741
7.42304
7.22088
7.02139
6.825
6.6321
6.44307
6.25822
6.07786
5.90227
5.7317
5.56635
5.40642
5.25208
5.10347
4.96072
4.82391
4.69314
4.56847
4.44995
4.33761
4.23147
4.13155
4.03785
3.95036
3.86907
3.79395
3.72498
3.66214
3.6054
3.55472
3.51009
3.47146
3.43882
3.41212
3.39122
3.37577
3.36678
3.3911
2156.42
-445.55
-106.046
-11.4455
0.787845
2.42153
3.24366
3.91403
4.48315
4.99845
5.48622
5.95585
6.40967
6.84765
7.2691
7.67316
8.059
8.42585
8.77307
9.10011
9.40652
9.69197
9.95621
10.1991
10.4205
10.6204
10.799
10.9562
11.0924
11.2076
11.3024
11.377
11.4318
11.4673
11.484
11.4826
11.4635
11.4276
11.3754
11.3077
11.2252
11.1288
11.0193
10.8974
10.764
10.6199
10.466
10.3032
10.1322
9.95395
9.76924
9.57889
9.38368
9.1844
8.98181
8.77662
8.56956
8.3613
8.1525
7.94376
7.73568
7.52882
7.3237
7.12082
6.92063
6.72357
6.53002
6.34036
6.15492
5.97399
5.79785
5.62675
5.4609
5.3005
5.1457
4.99665
4.85348
4.71628
4.58514
4.46012
4.34126
4.22861
4.12218
4.02199
3.92803
3.8403
3.75879
3.68346
3.61431
3.55131
3.49442
3.44361
3.39886
3.36014
3.32741
3.30064
3.2797
3.26427
3.2553
3.27809
2156.42
-445.553
-106.052
-11.4529
0.778392
2.40999
3.23003
3.89834
4.46539
4.97864
5.46437
5.93198
6.38379
6.81978
7.23925
7.64135
8.02524
8.39018
8.7355
9.06065
9.3652
9.64882
9.91124
10.1523
10.372
10.5702
10.747
10.9026
11.037
11.1507
11.2439
11.3168
11.3701
11.4041
11.4194
11.4164
11.396
11.3586
11.3051
11.236
11.1523
11.0546
10.9438
10.8206
10.686
10.5408
10.3858
10.2218
10.0498
9.87051
9.68478
9.49343
9.29726
9.09705
8.89354
8.68748
8.47957
8.27048
8.06087
7.85136
7.64253
7.43495
7.22913
7.02557
6.82473
6.62704
6.4329
6.24266
6.05665
5.87519
5.69854
5.52695
5.36063
5.19977
5.04454
4.89509
4.75153
4.61396
4.48246
4.35711
4.23794
4.12499
4.01829
3.91783
3.82364
3.73568
3.65396
3.57845
3.50912
3.44596
3.38892
3.33799
3.29313
3.25431
3.22151
3.19468
3.1737
3.15827
3.14931
3.17068
2156.42
-445.557
-106.057
-11.4599
0.769293
2.39888
3.21692
3.88323
4.4483
4.95959
5.44335
5.90902
6.3589
6.79298
7.21055
7.61078
7.99282
8.35591
8.69941
9.02277
9.32555
9.60742
9.86812
10.1075
10.3255
10.522
10.6972
10.8512
10.9841
11.0962
11.1878
11.2593
11.3111
11.3437
11.3576
11.3533
11.3315
11.2928
11.2379
11.1676
11.0826
10.9838
10.8718
10.7475
10.6118
10.4655
10.3094
10.1444
9.97139
9.79111
9.60443
9.41216
9.2151
9.01401
8.80967
8.60278
8.39408
8.18422
7.97387
7.76363
7.5541
7.34585
7.13938
6.93519
6.73375
6.53547
6.34076
6.14998
5.96346
5.7815
5.60437
5.43231
5.26555
5.10428
4.94865
4.79881
4.65488
4.51697
4.38515
4.25948
4.14002
4.02679
3.91983
3.81913
3.7247
3.63654
3.55462
3.47892
3.40943
3.34612
3.28895
3.2379
3.19293
3.15402
3.12114
3.09425
3.07323
3.0578
3.04886
3.0689
2156.42
-445.559
-106.062
-11.4667
0.760559
2.38821
3.20434
3.86874
4.4319
4.9413
5.42319
5.887
6.33504
6.76728
7.18305
7.58149
7.96175
8.3231
8.66487
8.98652
9.28762
9.56782
9.82688
10.0646
10.281
10.476
10.6497
10.8021
10.9335
11.0442
11.1344
11.2045
11.2549
11.2862
11.2987
11.2931
11.27
11.2301
11.1741
11.1026
11.0165
10.9165
10.8034
10.678
10.5413
10.394
10.2369
10.071
9.897
9.71582
9.52826
9.33513
9.13724
8.93534
8.73021
8.52257
8.31313
8.10256
7.89151
7.68061
7.47044
7.26155
7.05448
6.84971
6.6477
6.44889
6.25366
6.06237
5.87537
5.69294
5.51536
5.34288
5.17571
5.01404
4.85804
4.70784
4.56358
4.42534
4.29321
4.16725
4.04751
3.93403
3.82682
3.72589
3.63125
3.54288
3.46078
3.38491
3.31527
3.25181
3.19451
3.14334
3.09828
3.05928
3.02633
2.99937
2.97832
2.96288
2.95395
2.97276
2156.41
-445.562
-106.066
-11.4732
0.752202
2.37801
3.1923
3.85487
4.41622
4.92381
5.40391
5.86594
6.31222
6.74273
7.15677
7.5535
7.93208
8.29177
8.63189
8.95193
9.25142
9.53005
9.78756
10.0238
10.2387
10.4322
10.6044
10.7554
10.8855
10.9947
11.0836
11.1524
11.2015
11.2315
11.2428
11.236
11.2118
11.1707
11.1135
11.041
10.9537
10.8527
10.7386
10.6123
10.4746
10.3263
10.1683
10.0015
9.82668
9.64466
9.45629
9.26237
9.06371
8.86107
8.65521
8.44687
8.23675
8.02552
7.81384
7.60232
7.39155
7.18209
6.97446
6.76915
6.56663
6.36731
6.17159
5.97984
5.79239
5.60953
5.43154
5.25867
5.09112
4.92908
4.77273
4.62221
4.47762
4.33908
4.20666
4.08043
3.96044
3.84671
3.73927
3.63813
3.54329
3.45473
3.37245
3.29643
3.22663
3.16304
3.10562
3.05434
3.00918
2.9701
2.93708
2.91007
2.88897
2.87353
2.8646
2.88226
2156.41
-445.565
-106.071
-11.4794
0.744228
2.36828
3.18081
3.84164
4.40125
4.90713
5.38552
5.84586
6.29047
6.71932
7.13173
7.52684
7.90383
8.26194
8.60051
8.91901
9.217
9.49415
9.7502
9.98499
10.1985
10.3906
10.5614
10.7111
10.8398
10.9479
11.0355
11.103
11.1509
11.1797
11.1899
11.182
11.1566
11.1145
11.0563
10.9827
10.8945
10.7925
10.6775
10.5503
10.4117
10.2625
10.1037
9.93608
9.76045
9.57766
9.38854
9.1939
8.99453
8.79121
8.58469
8.37571
8.16496
7.95313
7.74086
7.52877
7.31746
7.10747
6.89933
6.69353
6.49052
6.29075
6.09459
5.90241
5.71454
5.53129
5.35292
5.17968
5.01178
4.84941
4.69273
4.5419
4.39702
4.2582
4.12552
3.99903
3.8788
3.76484
3.65719
3.55585
3.46082
3.37209
3.28964
3.21347
3.14353
3.07982
3.02228
2.9709
2.92565
2.88649
2.8534
2.82633
2.8052
2.78975
2.78082
2.79742
2156.41
-445.567
-106.075
-11.4853
0.736646
2.35902
3.16989
3.82906
4.38703
4.89127
5.36805
5.82678
6.2698
6.69709
7.10795
7.50153
7.87702
8.23364
8.57075
8.88781
9.18438
9.46013
9.71481
9.94826
10.1604
10.3512
10.5208
10.6692
10.7967
10.9036
10.99
11.0564
11.1032
11.1309
11.14
11.1311
11.1047
11.0616
11.0024
10.9279
10.8388
10.7359
10.62
10.492
10.3526
10.2026
10.0431
9.87469
9.69834
9.51484
9.32504
9.12973
8.92972
8.72578
8.51866
8.30909
8.09777
7.88539
7.67259
7.45999
7.24817
7.0377
6.82909
6.62284
6.4194
6.2192
6.02264
5.83007
5.64183
5.45821
5.27949
5.10591
4.93769
4.77501
4.61804
4.46692
4.32177
4.18269
4.04976
3.92304
3.80259
3.68842
3.58057
3.47904
3.38383
3.29494
3.21234
3.13603
3.06596
3.00212
2.94448
2.893
2.84766
2.80843
2.77527
2.74816
2.72698
2.71153
2.7026
2.71822
2156.41
-445.57
-106.079
-11.4909
0.729461
2.35025
3.15954
3.81714
4.37355
4.87624
5.35149
5.80871
6.25024
6.67604
7.08544
7.47759
7.85166
8.20689
8.54263
8.85834
9.15358
9.42802
9.68142
9.91362
10.1245
10.3141
10.4825
10.6298
10.7562
10.8619
10.9472
11.0126
11.0584
11.0851
11.0932
11.0833
11.056
11.012
10.952
10.8766
10.7867
10.683
10.5663
10.4375
10.2973
10.1467
9.98641
9.81735
9.64034
9.45621
9.26579
9.06989
8.86929
8.66479
8.45712
8.24702
8.03519
7.82231
7.60903
7.39596
7.1837
6.97279
6.76376
6.55709
6.35326
6.15268
5.95575
5.76282
5.57423
5.39029
5.21125
5.03736
4.86884
4.70588
4.54864
4.39726
4.25186
4.11255
3.97939
3.85246
3.73179
3.61743
3.5094
3.40769
3.31232
3.22328
3.14054
3.06409
2.99391
2.92996
2.87221
2.82065
2.77522
2.73592
2.7027
2.67553
2.65432
2.63887
2.62993
2.64465
2156.41
-445.572
-106.083
-11.4962
0.722678
2.34197
3.14977
3.80589
4.36083
4.86207
5.33587
5.79167
6.23178
6.65619
7.06422
7.45503
7.82777
8.18169
8.51615
8.8306
9.12461
9.39784
9.65005
9.88107
10.0908
10.2793
10.4466
10.5929
10.7182
10.8229
10.9072
10.9716
11.0165
11.0422
11.0495
11.0387
11.0106
10.9657
10.9049
10.8287
10.7381
10.6336
10.5163
10.3867
10.2459
10.0946
9.93375
9.76408
9.58648
9.40178
9.2108
9.01436
8.81325
8.60823
8.40008
8.1895
7.97722
7.76389
7.55018
7.33669
7.12402
6.91272
6.70331
6.49628
6.29209
6.09117
5.8939
5.70065
5.51176
5.32751
5.14818
4.97402
4.80523
4.64201
4.48453
4.33291
4.18728
4.04775
3.91438
3.78725
3.6664
3.55186
3.44366
3.3418
3.24628
3.15709
3.07422
2.99765
2.92735
2.8633
2.80546
2.75381
2.70831
2.66894
2.63566
2.60845
2.5872
2.57174
2.56279
2.57669
2156.41
-445.574
-106.086
-11.5012
0.716296
2.33418
3.14058
3.79531
4.34887
4.84874
5.32119
5.77565
6.21444
6.63756
7.04431
7.43385
7.80535
8.15806
8.49133
8.80462
9.09748
9.36959
9.6207
9.85065
10.0594
10.2468
10.4131
10.5584
10.6827
10.7865
10.8699
10.9334
10.9774
11.0024
11.0088
10.9972
10.9684
10.9228
10.8612
10.7844
10.693
10.5879
10.4699
10.3398
10.1984
10.0465
9.88507
9.71486
9.53674
9.35153
9.16007
8.96315
8.76157
8.55612
8.34753
8.13653
7.92384
7.71012
7.49602
7.28217
7.06914
6.85749
6.64774
6.44039
6.23588
6.03465
5.83709
5.64355
5.45438
5.26987
5.09028
4.91587
4.74684
4.58339
4.42568
4.27385
4.12801
3.98828
3.85473
3.72742
3.60639
3.49169
3.38333
3.28132
3.18567
3.09635
3.01336
2.93668
2.86627
2.80212
2.7442
2.69246
2.6469
2.60746
2.57413
2.54687
2.5256
2.51012
2.50117
2.51431
2156.41
-445.576
-106.089
-11.5058
0.710302
2.32689
3.13198
3.78541
4.33768
4.83628
5.30746
5.76067
6.19823
6.62014
7.0257
7.41407
7.78443
8.13602
8.46819
8.78039
9.0722
9.34328
9.59338
9.82235
10.0301
10.2166
10.382
10.5264
10.6499
10.7528
10.8354
10.8981
10.9413
10.9655
10.9712
10.959
10.9294
10.8831
10.8209
10.7435
10.6515
10.5459
10.4273
10.2966
10.1547
10.0023
9.84039
9.66971
9.49113
9.30548
9.11358
8.91625
8.71428
8.50843
8.29946
8.0881
7.87505
7.66099
7.44656
7.23238
7.01904
6.80708
6.59704
6.3894
6.18462
5.98312
5.78529
5.59151
5.40209
5.21734
5.03752
4.86288
4.69364
4.52999
4.37207
4.22005
4.07404
3.93413
3.8004
3.67293
3.55175
3.4369
3.3284
3.22626
3.13047
3.04104
2.95794
2.88115
2.81065
2.74641
2.68841
2.6366
2.59096
2.55147
2.51809
2.49079
2.46948
2.454
2.44503
2.45749
2156.41
-445.578
-106.092
-11.5103
0.704626
2.32005
3.12397
3.77619
4.32727
4.82468
5.29469
5.74674
6.18316
6.60394
7.0084
7.39569
7.765
8.11555
8.44671
8.75793
9.04878
9.31892
9.56811
9.79618
10.0031
10.1888
10.3533
10.4968
10.6196
10.7217
10.8036
10.8656
10.9081
10.9317
10.9367
10.9238
10.8937
10.8468
10.7841
10.7061
10.6136
10.5074
10.3884
10.2572
10.1149
9.96206
9.7997
9.62861
9.44964
9.26361
9.07135
8.87366
8.67134
8.46516
8.25587
8.0442
7.83084
7.61649
7.40177
7.18732
6.9737
6.76149
6.55119
6.3433
6.13828
5.93655
5.7385
5.54449
5.35486
5.1699
4.98988
4.81505
4.64562
4.48178
4.3237
4.1715
4.02532
3.88525
3.75138
3.62376
3.50244
3.38746
3.27883
3.17657
3.08067
2.99113
2.90793
2.83105
2.76046
2.69614
2.63806
2.58619
2.54049
2.50094
2.46752
2.44018
2.41884
2.40335
2.39437
2.40621
2156.41
-445.58
-106.096
-11.5149
0.698963
2.31354
3.11652
3.76767
4.31763
4.81394
5.28288
5.73386
6.16923
6.58897
6.99242
7.37872
7.74706
8.09667
8.42692
8.73725
9.02722
9.29651
9.54488
9.77215
9.97825
10.1632
10.327
10.4698
10.5918
10.6933
10.7746
10.8359
10.8779
10.9008
10.9053
10.8919
10.8612
10.8139
10.7506
10.6722
10.5792
10.4726
10.3532
10.2216
10.0789
9.92571
9.76299
9.59156
9.41226
9.22591
9.03334
8.83536
8.63275
8.4263
8.21674
8.0048
7.7912
7.5766
7.36165
7.14696
6.93312
6.72068
6.51017
6.30208
6.09685
5.89492
5.69668
5.50249
5.31267
5.12754
4.94735
4.77235
4.60276
4.43876
4.28052
4.12818
3.98185
3.84165
3.70764
3.57989
3.45845
3.34335
3.23461
3.13224
3.03624
2.9466
2.8633
2.78634
2.71567
2.65128
2.59313
2.5412
2.49545
2.45585
2.42238
2.39501
2.37364
2.35814
2.34916
2.36043
2156.41
-445.582
-106.099
-11.5206
0.692201
2.30667
3.1094
3.75982
4.3088
4.8041
5.27203
5.72204
6.15644
6.57524
6.97776
7.36316
7.73062
8.07938
8.4088
8.71833
9.00752
9.27606
9.52369
9.75025
9.95566
10.1399
10.3031
10.4453
10.5667
10.6676
10.7483
10.8091
10.8505
10.873
10.877
10.8631
10.832
10.7842
10.7206
10.6417
10.5484
10.4415
10.3217
10.1898
10.0467
9.89326
9.73026
9.55855
9.37898
9.19238
8.99957
8.80135
8.59851
8.39183
8.18206
7.96991
7.75611
7.54131
7.32617
7.11129
6.89727
6.68466
6.47397
6.26571
6.06032
5.85823
5.65983
5.46548
5.27551
5.09023
4.90989
4.73476
4.56502
4.40089
4.24252
4.09005
3.9436
3.80328
3.66915
3.54129
3.41974
3.30454
3.1957
3.09323
2.99714
2.90742
2.82404
2.747
2.67627
2.61181
2.5536
2.50161
2.45581
2.41617
2.38266
2.35525
2.33387
2.31835
2.30936
2.32014
2156.4
-445.583
-106.101
-11.5291
0.681163
2.29705
3.10153
3.75236
4.30082
4.79525
5.26226
5.71136
6.14487
6.5628
6.96448
7.34906
7.71572
8.06372
8.39239
8.7012
8.98971
9.25758
9.50456
9.7305
9.93531
10.119
10.2816
10.4232
10.5442
10.6446
10.7248
10.7851
10.8261
10.8481
10.8517
10.8375
10.806
10.7579
10.6939
10.6147
10.5212
10.4139
10.2938
10.1617
10.0184
9.86471
9.70149
9.52957
9.3498
9.163
8.97
8.7716
8.56859
8.36174
8.15181
7.93951
7.72555
7.5106
7.29531
7.0803
6.86614
6.65339
6.44257
6.23417
6.02866
5.82644
5.62791
5.43344
5.24335
5.05795
4.8775
4.70224
4.5324
4.36816
4.20968
4.0571
3.91055
3.77012
3.6359
3.50794
3.3863
3.27101
3.16208
3.05953
2.96337
2.87357
2.79012
2.71301
2.64221
2.5777
2.51944
2.4674
2.42155
2.38187
2.34833
2.32089
2.29949
2.28396
2.27496
2.2853
2156.39
-445.584
-106.092
-11.5369
0.660679
2.27845
3.0891
3.74371
4.29329
4.78752
5.25388
5.7022
6.13491
6.55204
6.95293
7.33675
7.70268
8.04998
8.37797
8.68613
8.97401
9.24127
9.48767
9.71305
9.91733
10.1005
10.2626
10.4038
10.5243
10.6242
10.704
10.764
10.8046
10.8263
10.8296
10.815
10.7832
10.7349
10.6706
10.5912
10.4974
10.39
10.2697
10.1374
9.99392
9.84006
9.67668
9.50461
9.3247
9.13777
8.94464
8.74611
8.54299
8.33602
8.12598
7.91357
7.69951
7.48446
7.26907
7.05396
6.8397
6.62686
6.41594
6.20745
6.00184
5.79953
5.60091
5.40635
5.21617
5.03068
4.85014
4.67479
4.50486
4.34053
4.18196
4.0293
3.88267
3.74216
3.60785
3.47982
3.3581
3.24273
3.13373
3.03112
2.93488
2.84502
2.76151
2.68435
2.61349
2.54893
2.49062
2.43854
2.39265
2.35294
2.31937
2.2919
2.27047
2.25494
2.24594
2.25588
2156.28
-445.637
-106.046
-11.5061
0.637933
2.24322
3.06371
3.72859
4.28368
4.78011
5.24707
5.69532
6.12764
6.54423
6.94448
7.32763
7.69287
8.03946
8.36676
8.67423
8.96144
9.22806
9.47383
9.69861
9.90231
10.0849
10.2465
10.3872
10.5073
10.6068
10.6862
10.7459
10.7861
10.8075
10.8105
10.7957
10.7637
10.7151
10.6507
10.5711
10.4772
10.3696
10.2492
10.1168
9.97315
9.81919
9.65571
9.48356
9.30357
9.11657
8.92337
8.72478
8.5216
8.31458
8.10448
7.89202
7.6779
7.4628
7.24736
7.03219
6.81789
6.60499
6.39402
6.18548
5.97981
5.77744
5.57877
5.38415
5.19391
5.00836
4.82776
4.65235
4.48236
4.31796
4.15933
4.00661
3.85991
3.71934
3.58497
3.45688
3.3351
3.21967
3.11061
3.00794
2.91165
2.82173
2.73818
2.66097
2.59007
2.52546
2.46711
2.41499
2.36908
2.32933
2.29574
2.26825
2.2468
2.23126
2.22225
2.23186
2155.33
-446.365
-106.103
-11.3291
0.685085
2.20789
3.01901
3.69584
4.26184
4.76507
5.23609
5.68679
6.12057
6.5379
6.93839
7.32141
7.68625
8.03228
8.3589
8.66562
8.95203
9.21784
9.46281
9.68681
9.88976
10.0717
10.2326
10.3727
10.4922
10.5913
10.6703
10.7295
10.7695
10.7906
10.7933
10.7783
10.7462
10.6975
10.6329
10.5533
10.4593
10.3516
10.2312
10.0988
9.95516
9.80121
9.63775
9.46562
9.28566
9.09868
8.90551
8.70696
8.5038
8.29681
8.08674
7.87431
7.66022
7.44515
7.22973
7.01458
6.80029
6.58741
6.37645
6.16792
5.96225
5.75988
5.56121
5.36658
5.17633
4.99076
4.81014
4.63471
4.46469
4.30027
4.14161
3.98886
3.84213
3.70152
3.56712
3.43899
3.31717
3.20171
3.09261
2.9899
2.89357
2.80362
2.72003
2.64278
2.57185
2.50721
2.44884
2.39669
2.35075
2.31099
2.27737
2.24987
2.22841
2.21286
2.20384
2.21315
2148.39
-452.278
-108.372
-11.3076
0.920883
2.26441
2.98355
3.63735
4.20091
4.70549
5.17851
5.63146
6.06749
6.48687
6.88916
7.27375
7.64005
7.98749
8.31552
8.62369
8.91159
9.17887
9.42531
9.65073
9.85505
10.0383
10.2004
10.3416
10.4622
10.5622
10.6421
10.7021
10.7429
10.7647
10.7681
10.7537
10.7222
10.6741
10.6101
10.531
10.4375
10.3303
10.2104
10.0784
9.93523
9.78171
9.61867
9.44694
9.26736
9.08075
8.88794
8.68972
8.48689
8.28021
8.07043
7.85828
7.64445
7.42962
7.21443
6.9995
6.78542
6.57272
6.36194
6.15356
5.94805
5.74581
5.54726
5.35274
5.16259
4.97711
4.79658
4.62122
4.45127
4.2869
4.12829
3.97557
3.82887
3.68829
3.55391
3.42579
3.30399
3.18853
3.07944
2.97673
2.8804
2.79045
2.70685
2.6296
2.55866
2.49401
2.43563
2.38347
2.33753
2.29775
2.26413
2.23662
2.21515
2.1996
2.19057
2.19967
2118.17
-479.953
-122.566
-14.4439
1.04266
2.62446
3.13123
3.63633
4.1118
4.5519
4.97143
5.38066
5.78355
6.18045
6.57011
6.95069
7.32015
7.6765
8.0179
8.34265
8.6493
8.93658
9.20347
9.44918
9.67312
9.87491
10.0544
10.2115
10.3463
10.4592
10.5504
10.6205
10.67
10.6994
10.7094
10.7007
10.6741
10.6303
10.5701
10.4942
10.4036
10.299
10.1812
10.0513
9.90992
9.75803
9.59647
9.42608
9.24773
9.06226
8.87048
8.67321
8.47125
8.26538
8.05634
7.84487
7.63167
7.41741
7.20275
6.9883
6.77465
6.56235
6.35193
6.14388
5.93866
5.7367
5.53838
5.34408
5.15412
4.96881
4.78843
4.6132
4.44336
4.27909
4.12056
3.96791
3.82128
3.68074
3.5464
3.41832
3.29653
3.18109
3.07202
2.96931
2.87299
2.78303
2.69943
2.62217
2.55123
2.48657
2.42818
2.37602
2.33006
2.29028
2.25665
2.22913
2.20766
2.1921
2.18314
2.19254
2364.46
-430.089
-103.574
-6.95721
3.87177
3.71958
3.64524
4.00821
4.50466
5.01982
5.5243
6.01065
6.47627
6.91988
7.34074
7.73845
8.1128
8.46376
8.79137
9.09577
9.37716
9.63576
9.87183
10.0856
10.2775
10.4476
10.5963
10.724
10.8309
10.9174
10.9839
11.0309
11.0588
11.068
11.0591
11.0327
10.9895
10.93
10.8549
10.765
10.6611
10.5438
10.414
10.2725
10.1201
9.95764
9.78597
9.60591
9.4183
9.22395
9.02368
8.81829
8.60856
8.39525
8.17912
7.96087
7.7412
7.52078
7.30024
7.0802
6.86123
6.64387
6.42865
6.21604
6.0065
5.80043
5.59824
5.40026
5.20683
5.01825
4.83477
4.65663
4.48404
4.31718
4.15623
4.0013
3.85253
3.70999
3.57378
3.44394
3.32053
3.20357
3.09308
2.98907
2.89153
2.80045
2.71582
2.63761
2.5658
2.50036
2.44125
2.38845
2.34192
2.30163
2.26755
2.23965
2.21783
2.20202
2.19335
2.20639
)
;

boundaryField
{
    xmin
    {
        type            calculated;
        value           uniform 0;
    }
    xmax
    {
        type            calculated;
        value           nonuniform List<scalar> 
100
(
2068.91
-376.319
-90.6116
-6.06556
3.41607
3.28915
3.23032
3.5541
3.99464
4.45149
4.89896
5.33049
5.74384
6.13786
6.5119
6.86561
7.19881
7.51145
7.80357
8.07531
8.32681
8.55828
8.76993
8.962
9.13473
9.28838
9.42319
9.53946
9.63747
9.71753
9.77999
9.8252
9.85358
9.86555
9.86158
9.84218
9.80788
9.75927
9.69693
9.62151
9.53365
9.43404
9.32337
9.20236
9.07171
8.93217
8.78445
8.6293
8.46745
8.29961
8.1265
7.94882
7.76726
7.58249
7.39516
7.2059
7.01533
6.82403
6.63256
6.44145
6.25121
6.06233
5.87526
5.69041
5.50819
5.32897
5.15308
4.98084
4.81254
4.64843
4.48874
4.3337
4.18347
4.03823
3.89812
3.76326
3.63375
3.50967
3.3911
3.27809
3.17068
3.0689
2.97276
2.88226
2.79742
2.71822
2.64465
2.57669
2.51431
2.45749
2.40621
2.36043
2.32014
2.2853
2.25588
2.23186
2.21315
2.19967
2.19254
2.20639
)
;
    }
    ymin
    {
        type            calculated;
        value           uniform 0;
    }
    ymax
    {
        type            calculated;
        value           nonuniform List<scalar> 
100
(
2364.46
-430.089
-103.574
-6.95721
3.87177
3.71958
3.64524
4.00821
4.50466
5.01982
5.5243
6.01065
6.47627
6.91988
7.34074
7.73845
8.1128
8.46376
8.79137
9.09577
9.37716
9.63576
9.87183
10.0856
10.2775
10.4476
10.5963
10.724
10.8309
10.9174
10.9839
11.0309
11.0588
11.068
11.0591
11.0327
10.9895
10.93
10.8549
10.765
10.6611
10.5438
10.414
10.2725
10.1201
9.95764
9.78597
9.60591
9.4183
9.22395
9.02368
8.81829
8.60856
8.39525
8.17912
7.96087
7.7412
7.52078
7.30024
7.0802
6.86123
6.64387
6.42865
6.21604
6.0065
5.80043
5.59824
5.40026
5.20683
5.01825
4.83477
4.65663
4.48404
4.31718
4.15623
4.0013
3.85253
3.70999
3.57378
3.44394
3.32053
3.20357
3.09308
2.98907
2.89153
2.80045
2.71582
2.63761
2.5658
2.50036
2.44125
2.38845
2.34192
2.30163
2.26755
2.23965
2.21783
2.20202
2.19335
2.20639
)
;
    }
    frontAndBack
    {
        type            empty;
    }
}


// ************************************************************************* //
